####### Preamble ##########################

#	byt_nr=1

#	bit_nr=8

#	encdg=BIN

#	bn_fmt=RI

#	byt_or=MSB

#	nr_pt=10000

#	wfid="Ch1, DC coupling, 1.0E-1 V/div, 2.0E0 s/div, 10000 points, Sample mode"

#	pt_fmt=Y

#	xincr=2.0E-3

#	pt_off=0

#	xzero=-1.0E1

#	xunit="s"

#	ymult=4.0E-3

#	yzero=0.0E0

#	yoff=0.0E0

#	yunit="V"

#######  Cursor ##########################

#VBA;IND;"s";8.48E0;-1.04E0;0.0E0;9.52E0;CURSOR2;-4.4E-2;-4.4E-2;6.2E-2;-5.8E-2;1.2E-1;CURSOR1;"V";CURSOR2;CURSOR2X;-4.2E-1;-6.2E0;4.2E-1;6.6E0;RECT;0.0E0;0.0E0;0.0E0;0.0E0;0.0E0;0.0E0;9.9E37;9.9E37;9.9E37;9.9E37;9.9E37;9.9E37;9.9E37;9.9E37;9.9E37;9.9E37;9.9E37;9.9E37


#######  Data ##########################

#RIB;REF1;CH1;1;10000;1


# Delete the above lines to open in excel ######



Time [s],volts [V]

0.0,0.14

0.002,0.212

0.004,0.196

0.006,0.192

0.008,0.192

0.01,0.192

0.012,0.192

0.014,0.056

0.016,0.052000000000000005

0.018000000000000002,0.052000000000000005

0.02,0.056

0.022,0.056

0.024,0.056

0.026000000000000002,0.052000000000000005

0.028,0.052000000000000005

0.03,0.052000000000000005

0.032,0.052000000000000005

0.034,0.052000000000000005

0.036000000000000004,0.056

0.038,0.056

0.04,0.052000000000000005

0.042,0.056

0.044,0.056

0.046,0.052000000000000005

0.048,0.052000000000000005

0.05,0.06

0.052000000000000005,0.052000000000000005

0.054,0.056

0.056,0.056

0.058,0.052000000000000005

0.06,0.056

0.062,0.052000000000000005

0.064,0.052000000000000005

0.066,0.056

0.068,0.056

0.07,0.056

0.07200000000000001,0.056

0.074,0.056

0.076,0.06

0.078,0.056

0.08,0.056

0.082,0.06

0.084,0.056

0.08600000000000001,0.06

0.088,0.06

0.09,0.056

0.092,0.056

0.094,0.056

0.096,0.056

0.098,0.056

0.1,0.056

0.10200000000000001,0.06

0.10400000000000001,0.06

0.106,0.052000000000000005

0.108,0.056

0.11,0.056

0.112,0.056

0.114,0.056

0.116,0.052000000000000005

0.11800000000000001,0.056

0.12,0.056

0.122,0.06

0.124,0.056

0.126,0.056

0.128,0.056

0.13,0.056

0.132,0.06

0.134,0.06

0.136,0.056

0.138,0.056

0.14,0.056

0.14200000000000002,0.056

0.14400000000000002,0.056

0.146,0.056

0.148,0.06

0.15,0.06

0.152,0.06

0.154,0.06

0.156,0.06

0.158,0.06

0.16,0.06

0.162,0.056

0.164,0.06

0.166,0.056

0.168,0.06

0.17,0.056

0.17200000000000001,0.06

0.17400000000000002,0.056

0.176,0.056

0.178,0.06

0.18,0.064

0.182,0.056

0.184,0.056

0.186,0.056

0.188,0.056

0.19,0.06

0.192,0.064

0.194,0.06

0.196,0.056

0.198,0.064

0.2,0.06

0.202,0.06

0.20400000000000001,0.056

0.20600000000000002,0.056

0.20800000000000002,0.06

0.21,0.06

0.212,0.06

0.214,0.056

0.216,0.056

0.218,0.06

0.22,0.06

0.222,0.06

0.224,0.064

0.226,0.06

0.228,0.06

0.23,0.064

0.232,0.06

0.234,0.064

0.23600000000000002,0.06

0.23800000000000002,0.056

0.24,0.06

0.242,0.056

0.244,0.06

0.246,0.06

0.248,0.06

0.25,0.056

0.252,0.06

0.254,0.06

0.256,0.056

0.258,0.06

0.26,0.064

0.262,0.06

0.264,0.056

0.266,0.06

0.268,0.064

0.27,0.064

0.272,0.064

0.274,0.06

0.276,0.06

0.278,0.064

0.28,0.06

0.28200000000000003,0.06

0.28400000000000003,0.06

0.28600000000000003,0.064

0.28800000000000003,0.06

0.29,0.06

0.292,0.056

0.294,0.056

0.296,0.06

0.298,0.06

0.3,0.064

0.302,0.06

0.304,0.06

0.306,0.068

0.308,0.064

0.31,0.06

0.312,0.064

0.314,0.064

0.316,0.06

0.318,0.064

0.32,0.064

0.322,0.064

0.324,0.064

0.326,0.064

0.328,0.064

0.33,0.068

0.332,0.06

0.334,0.064

0.336,0.064

0.338,0.06

0.34,0.068

0.342,0.064

0.34400000000000003,0.068

0.34600000000000003,0.06

0.34800000000000003,0.068

0.35000000000000003,0.068

0.352,0.064

0.354,0.06

0.356,0.06

0.358,0.064

0.36,0.064

0.362,0.064

0.364,0.064

0.366,0.064

0.368,0.064

0.37,0.064

0.372,0.06

0.374,0.07200000000000001

0.376,0.068

0.378,0.064

0.38,0.064

0.382,0.064

0.384,0.064

0.386,0.064

0.388,0.068

0.39,0.064

0.392,0.068

0.394,0.064

0.396,0.064

0.398,0.068

0.4,0.064

0.402,0.064

0.404,0.064

0.406,0.07200000000000001

0.40800000000000003,0.064

0.41000000000000003,0.068

0.41200000000000003,0.06

0.41400000000000003,0.068

0.41600000000000004,0.064

0.418,0.064

0.42,0.068

0.422,0.068

0.424,0.068

0.426,0.068

0.428,0.068

0.43,0.068

0.432,0.068

0.434,0.068

0.436,0.064

0.438,0.068

0.44,0.064

0.442,0.064

0.444,0.064

0.446,0.068

0.448,0.064

0.45,0.064

0.452,0.068

0.454,0.06

0.456,0.064

0.458,0.068

0.46,0.068

0.462,0.064

0.464,0.068

0.466,0.064

0.468,0.07200000000000001

0.47000000000000003,0.07200000000000001

0.47200000000000003,0.068

0.47400000000000003,0.068

0.47600000000000003,0.064

0.47800000000000004,0.064

0.48,0.064

0.482,0.068

0.484,0.068

0.486,0.068

0.488,0.068

0.49,0.064

0.492,0.068

0.494,0.068

0.496,0.068

0.498,0.068

0.5,0.068

0.502,0.064

0.504,0.068

0.506,0.068

0.508,0.068

0.51,0.068

0.512,0.068

0.514,0.068

0.516,0.07200000000000001

0.518,0.07200000000000001

0.52,0.068

0.522,0.068

0.524,0.068

0.526,0.068

0.528,0.068

0.53,0.068

0.532,0.064

0.534,0.064

0.536,0.064

0.538,0.068

0.54,0.068

0.542,0.068

0.544,0.07200000000000001

0.546,0.068

0.548,0.068

0.55,0.068

0.552,0.07200000000000001

0.554,0.068

0.556,0.07200000000000001

0.558,0.068

0.56,0.07200000000000001

0.562,0.07200000000000001

0.5640000000000001,0.068

0.5660000000000001,0.07200000000000001

0.5680000000000001,0.068

0.5700000000000001,0.068

0.5720000000000001,0.068

0.5740000000000001,0.07200000000000001

0.5760000000000001,0.068

0.578,0.068

0.58,0.064

0.582,0.07200000000000001

0.584,0.068

0.586,0.07200000000000001

0.588,0.068

0.59,0.068

0.592,0.07200000000000001

0.594,0.068

0.596,0.068

0.598,0.07200000000000001

0.6,0.068

0.602,0.068

0.604,0.068

0.606,0.068

0.608,0.068

0.61,0.07200000000000001

0.612,0.07200000000000001

0.614,0.07200000000000001

0.616,0.07200000000000001

0.618,0.07200000000000001

0.62,0.068

0.622,0.07200000000000001

0.624,0.07200000000000001

0.626,0.07200000000000001

0.628,0.068

0.63,0.07200000000000001

0.632,0.07200000000000001

0.634,0.064

0.636,0.068

0.638,0.07200000000000001

0.64,0.068

0.642,0.07200000000000001

0.644,0.07200000000000001

0.646,0.07200000000000001

0.648,0.07200000000000001

0.65,0.07200000000000001

0.652,0.068

0.654,0.07200000000000001

0.656,0.07200000000000001

0.658,0.076

0.66,0.07200000000000001

0.662,0.07200000000000001

0.664,0.07200000000000001

0.666,0.07200000000000001

0.668,0.07200000000000001

0.67,0.07200000000000001

0.672,0.07200000000000001

0.674,0.07200000000000001

0.676,0.076

0.678,0.07200000000000001

0.68,0.07200000000000001

0.682,0.064

0.684,0.07200000000000001

0.686,0.07200000000000001

0.6880000000000001,0.068

0.6900000000000001,0.07200000000000001

0.6920000000000001,0.07200000000000001

0.6940000000000001,0.07200000000000001

0.6960000000000001,0.07200000000000001

0.6980000000000001,0.07200000000000001

0.7000000000000001,0.076

0.7020000000000001,0.07200000000000001

0.704,0.07200000000000001

0.706,0.07200000000000001

0.708,0.07200000000000001

0.71,0.07200000000000001

0.712,0.07200000000000001

0.714,0.07200000000000001

0.716,0.07200000000000001

0.718,0.076

0.72,0.07200000000000001

0.722,0.076

0.724,0.07200000000000001

0.726,0.07200000000000001

0.728,0.07200000000000001

0.73,0.076

0.732,0.07200000000000001

0.734,0.076

0.736,0.076

0.738,0.07200000000000001

0.74,0.07200000000000001

0.742,0.07200000000000001

0.744,0.07200000000000001

0.746,0.07200000000000001

0.748,0.07200000000000001

0.75,0.07200000000000001

0.752,0.07200000000000001

0.754,0.076

0.756,0.068

0.758,0.07200000000000001

0.76,0.07200000000000001

0.762,0.07200000000000001

0.764,0.07200000000000001

0.766,0.076

0.768,0.068

0.77,0.07200000000000001

0.772,0.07200000000000001

0.774,0.076

0.776,0.07200000000000001

0.778,0.07200000000000001

0.78,0.07200000000000001

0.782,0.076

0.784,0.07200000000000001

0.786,0.07200000000000001

0.788,0.07200000000000001

0.79,0.07200000000000001

0.792,0.07200000000000001

0.794,0.07200000000000001

0.796,0.076

0.798,0.068

0.8,0.076

0.802,0.07200000000000001

0.804,0.07200000000000001

0.806,0.07200000000000001

0.808,0.068

0.81,0.076

0.812,0.07200000000000001

0.8140000000000001,0.07200000000000001

0.8160000000000001,0.076

0.8180000000000001,0.07200000000000001

0.8200000000000001,0.07200000000000001

0.8220000000000001,0.07200000000000001

0.8240000000000001,0.076

0.8260000000000001,0.07200000000000001

0.8280000000000001,0.07200000000000001

0.8300000000000001,0.07200000000000001

0.8320000000000001,0.07200000000000001

0.834,0.07200000000000001

0.836,0.07200000000000001

0.838,0.076

0.84,0.07200000000000001

0.842,0.07200000000000001

0.844,0.07200000000000001

0.846,0.076

0.848,0.076

0.85,0.07200000000000001

0.852,0.07200000000000001

0.854,0.07200000000000001

0.856,0.076

0.858,0.076

0.86,0.07200000000000001

0.862,0.07200000000000001

0.864,0.076

0.866,0.07200000000000001

0.868,0.076

0.87,0.07200000000000001

0.872,0.076

0.874,0.076

0.876,0.07200000000000001

0.878,0.07200000000000001

0.88,0.07200000000000001

0.882,0.07200000000000001

0.884,0.07200000000000001

0.886,0.07200000000000001

0.888,0.068

0.89,0.068

0.892,0.07200000000000001

0.894,0.07200000000000001

0.896,0.076

0.898,0.076

0.9,0.076

0.902,0.076

0.904,0.076

0.906,0.076

0.908,0.07200000000000001

0.91,0.07200000000000001

0.912,0.07200000000000001

0.914,0.08

0.916,0.076

0.918,0.08

0.92,0.076

0.922,0.07200000000000001

0.924,0.07200000000000001

0.926,0.076

0.928,0.07200000000000001

0.93,0.076

0.932,0.08

0.934,0.076

0.936,0.076

0.9380000000000001,0.07200000000000001

0.9400000000000001,0.07200000000000001

0.9420000000000001,0.076

0.9440000000000001,0.076

0.9460000000000001,0.076

0.9480000000000001,0.076

0.9500000000000001,0.076

0.9520000000000001,0.076

0.9540000000000001,0.07200000000000001

0.9560000000000001,0.07200000000000001

0.9580000000000001,0.076

0.96,0.076

0.962,0.076

0.964,0.07200000000000001

0.966,0.076

0.968,0.076

0.97,0.08

0.972,0.076

0.974,0.07200000000000001

0.976,0.076

0.978,0.076

0.98,0.076

0.982,0.076

0.984,0.08

0.986,0.076

0.988,0.08

0.99,0.08

0.992,0.076

0.994,0.076

0.996,0.07200000000000001

0.998,0.076

1.0,0.07200000000000001

1.002,0.076

1.004,0.076

1.006,0.076

1.008,0.07200000000000001

1.01,0.076

1.012,0.076

1.014,0.07200000000000001

1.016,0.076

1.018,0.07200000000000001

1.02,0.076

1.022,0.076

1.024,0.076

1.026,0.08

1.028,0.076

1.03,0.07200000000000001

1.032,0.07200000000000001

1.034,0.08

1.036,0.076

1.038,0.076

1.04,0.07200000000000001

1.042,0.07200000000000001

1.044,0.08

1.046,0.076

1.048,0.08

1.05,0.07200000000000001

1.052,0.076

1.054,0.076

1.056,0.076

1.058,0.08

1.06,0.076

1.062,0.076

1.064,0.076

1.066,0.08

1.068,0.08

1.07,0.076

1.072,0.08

1.074,0.07200000000000001

1.076,0.076

1.078,0.076

1.08,0.07200000000000001

1.082,0.07200000000000001

1.084,0.08

1.086,0.076

1.088,0.076

1.09,0.076

1.092,0.07200000000000001

1.094,0.08

1.096,0.08

1.098,0.076

1.1,0.07200000000000001

1.102,0.07200000000000001

1.104,0.076

1.106,0.076

1.108,0.076

1.11,0.076

1.112,0.076

1.114,0.08

1.116,0.076

1.118,0.076

1.12,0.08

1.122,0.076

1.124,0.076

1.1260000000000001,0.076

1.1280000000000001,0.08

1.1300000000000001,0.076

1.1320000000000001,0.076

1.1340000000000001,0.08

1.1360000000000001,0.076

1.1380000000000001,0.08

1.1400000000000001,0.076

1.1420000000000001,0.076

1.1440000000000001,0.076

1.1460000000000001,0.076

1.1480000000000001,0.076

1.1500000000000001,0.08

1.1520000000000001,0.07200000000000001

1.154,0.076

1.156,0.076

1.158,0.076

1.16,0.08

1.162,0.076

1.164,0.07200000000000001

1.166,0.076

1.168,0.076

1.17,0.076

1.172,0.07200000000000001

1.174,0.076

1.176,0.08

1.178,0.076

1.18,0.08

1.182,0.08

1.184,0.07200000000000001

1.186,0.076

1.188,0.08

1.19,0.076

1.192,0.076

1.194,0.07200000000000001

1.196,0.07200000000000001

1.198,0.076

1.2,0.076

1.202,0.076

1.204,0.07200000000000001

1.206,0.076

1.208,0.076

1.21,0.07200000000000001

1.212,0.08

1.214,0.08

1.216,0.076

1.218,0.076

1.22,0.076

1.222,0.076

1.224,0.076

1.226,0.076

1.228,0.076

1.23,0.07200000000000001

1.232,0.076

1.234,0.076

1.236,0.076

1.238,0.076

1.24,0.076

1.242,0.076

1.244,0.076

1.246,0.08

1.248,0.076

1.25,0.076

1.252,0.07200000000000001

1.254,0.07200000000000001

1.256,0.076

1.258,0.076

1.26,0.076

1.262,0.076

1.264,0.076

1.266,0.076

1.268,0.076

1.27,0.08

1.272,0.076

1.274,0.076

1.276,0.076

1.278,0.076

1.28,0.08

1.282,0.08

1.284,0.076

1.286,0.08

1.288,0.076

1.29,0.076

1.292,0.08

1.294,0.08

1.296,0.076

1.298,0.07200000000000001

1.3,0.076

1.302,0.076

1.304,0.076

1.306,0.08

1.308,0.076

1.31,0.076

1.312,0.076

1.314,0.076

1.316,0.076

1.318,0.076

1.32,0.076

1.322,0.076

1.324,0.08

1.326,0.076

1.328,0.076

1.33,0.08

1.332,0.076

1.334,0.076

1.336,0.076

1.338,0.076

1.34,0.076

1.342,0.07200000000000001

1.344,0.08

1.346,0.07200000000000001

1.348,0.076

1.35,0.076

1.352,0.076

1.354,0.07200000000000001

1.356,0.076

1.358,0.076

1.36,0.08

1.362,0.08

1.364,0.08

1.366,0.08

1.368,0.076

1.37,0.076

1.372,0.084

1.374,0.08

1.3760000000000001,0.076

1.3780000000000001,0.076

1.3800000000000001,0.07200000000000001

1.3820000000000001,0.076

1.3840000000000001,0.07200000000000001

1.3860000000000001,0.076

1.3880000000000001,0.076

1.3900000000000001,0.076

1.3920000000000001,0.07200000000000001

1.3940000000000001,0.076

1.3960000000000001,0.076

1.3980000000000001,0.076

1.4000000000000001,0.07200000000000001

1.4020000000000001,0.076

1.4040000000000001,0.07200000000000001

1.4060000000000001,0.076

1.408,0.076

1.41,0.076

1.412,0.076

1.414,0.076

1.416,0.076

1.418,0.07200000000000001

1.42,0.07200000000000001

1.422,0.076

1.424,0.076

1.426,0.076

1.428,0.07200000000000001

1.43,0.076

1.432,0.076

1.434,0.076

1.436,0.07200000000000001

1.438,0.076

1.44,0.076

1.442,0.076

1.444,0.076

1.446,0.076

1.448,0.08

1.45,0.076

1.452,0.076

1.454,0.076

1.456,0.076

1.458,0.076

1.46,0.076

1.462,0.076

1.464,0.076

1.466,0.07200000000000001

1.468,0.076

1.47,0.07200000000000001

1.472,0.076

1.474,0.076

1.476,0.076

1.478,0.076

1.48,0.07200000000000001

1.482,0.076

1.484,0.076

1.486,0.076

1.488,0.076

1.49,0.076

1.492,0.076

1.494,0.076

1.496,0.076

1.498,0.08

1.5,0.076

1.502,0.07200000000000001

1.504,0.076

1.506,0.07200000000000001

1.508,0.07200000000000001

1.51,0.076

1.512,0.07200000000000001

1.514,0.076

1.516,0.076

1.518,0.08

1.52,0.076

1.522,0.076

1.524,0.07200000000000001

1.526,0.076

1.528,0.076

1.53,0.076

1.532,0.08

1.534,0.08

1.536,0.076

1.538,0.07200000000000001

1.54,0.076

1.542,0.07200000000000001

1.544,0.07200000000000001

1.546,0.076

1.548,0.07200000000000001

1.55,0.076

1.552,0.076

1.554,0.076

1.556,0.08

1.558,0.08

1.56,0.076

1.562,0.07200000000000001

1.564,0.076

1.566,0.076

1.568,0.07200000000000001

1.57,0.076

1.572,0.07200000000000001

1.574,0.07200000000000001

1.576,0.08

1.578,0.076

1.58,0.07200000000000001

1.582,0.076

1.584,0.076

1.586,0.076

1.588,0.076

1.59,0.076

1.592,0.07200000000000001

1.594,0.076

1.596,0.07200000000000001

1.598,0.07200000000000001

1.6,0.076

1.602,0.076

1.604,0.076

1.606,0.076

1.608,0.07200000000000001

1.61,0.07200000000000001

1.612,0.076

1.614,0.076

1.616,0.076

1.618,0.07200000000000001

1.62,0.07200000000000001

1.622,0.076

1.624,0.07200000000000001

1.6260000000000001,0.07200000000000001

1.6280000000000001,0.07200000000000001

1.6300000000000001,0.07200000000000001

1.6320000000000001,0.07200000000000001

1.6340000000000001,0.08

1.6360000000000001,0.07200000000000001

1.6380000000000001,0.07200000000000001

1.6400000000000001,0.076

1.6420000000000001,0.076

1.6440000000000001,0.07200000000000001

1.6460000000000001,0.076

1.6480000000000001,0.076

1.6500000000000001,0.07200000000000001

1.6520000000000001,0.08

1.6540000000000001,0.076

1.6560000000000001,0.076

1.6580000000000001,0.076

1.6600000000000001,0.07200000000000001

1.6620000000000001,0.07200000000000001

1.6640000000000001,0.076

1.666,0.076

1.668,0.076

1.67,0.076

1.672,0.07200000000000001

1.674,0.07200000000000001

1.676,0.076

1.678,0.07200000000000001

1.68,0.076

1.682,0.07200000000000001

1.684,0.08

1.686,0.07200000000000001

1.688,0.07200000000000001

1.69,0.07200000000000001

1.692,0.07200000000000001

1.694,0.07200000000000001

1.696,0.068

1.698,0.076

1.7,0.07200000000000001

1.702,0.076

1.704,0.07200000000000001

1.706,0.07200000000000001

1.708,0.076

1.71,0.076

1.712,0.076

1.714,0.076

1.716,0.07200000000000001

1.718,0.07200000000000001

1.72,0.076

1.722,0.07200000000000001

1.724,0.07200000000000001

1.726,0.07200000000000001

1.728,0.07200000000000001

1.73,0.076

1.732,0.07200000000000001

1.734,0.07200000000000001

1.736,0.07200000000000001

1.738,0.076

1.74,0.076

1.742,0.07200000000000001

1.744,0.076

1.746,0.076

1.748,0.076

1.75,0.076

1.752,0.06

1.754,0.068

1.756,0.064

1.758,0.08

1.76,0.064

1.762,0.07200000000000001

1.764,0.08

1.766,0.064

1.768,0.064

1.77,0.08

1.772,0.08

1.774,0.076

1.776,0.064

1.778,0.076

1.78,0.068

1.782,0.064

1.784,0.06

1.786,0.064

1.788,0.07200000000000001

1.79,0.08

1.792,0.064

1.794,0.08

1.796,0.08

1.798,0.07200000000000001

1.8,0.064

1.802,0.068

1.804,0.068

1.806,0.08

1.808,0.08

1.81,0.07200000000000001

1.812,0.06

1.814,0.064

1.816,0.076

1.818,0.076

1.82,0.068

1.822,0.07200000000000001

1.824,0.076

1.826,0.064

1.828,0.084

1.83,0.064

1.832,0.08

1.834,0.07200000000000001

1.836,0.06

1.838,0.07200000000000001

1.84,0.08

1.842,0.064

1.844,0.076

1.846,0.06

1.848,0.068

1.85,0.064

1.852,0.076

1.854,0.08

1.856,0.08

1.858,0.08

1.86,0.076

1.862,0.076

1.864,0.068

1.866,0.064

1.868,0.064

1.87,0.068

1.872,0.08

1.874,0.076

1.8760000000000001,0.06

1.8780000000000001,0.07200000000000001

1.8800000000000001,0.08

1.8820000000000001,0.068

1.8840000000000001,0.07200000000000001

1.8860000000000001,0.076

1.8880000000000001,0.06

1.8900000000000001,0.08

1.8920000000000001,0.064

1.8940000000000001,0.07200000000000001

1.8960000000000001,0.068

1.8980000000000001,0.08

1.9000000000000001,0.068

1.9020000000000001,0.08

1.9040000000000001,0.064

1.9060000000000001,0.08

1.9080000000000001,0.064

1.9100000000000001,0.076

1.9120000000000001,0.076

1.9140000000000001,0.064

1.9160000000000001,0.08

1.9180000000000001,0.068

1.92,0.064

1.922,0.068

1.924,0.068

1.926,0.08

1.928,0.08

1.93,0.068

1.932,0.08

1.934,0.068

1.936,0.06

1.938,0.076

1.94,0.064

1.942,0.064

1.944,0.076

1.946,0.064

1.948,0.07200000000000001

1.95,0.076

1.952,0.07200000000000001

1.954,0.064

1.956,0.08

1.958,0.08

1.96,0.06

1.962,0.068

1.964,0.07200000000000001

1.966,0.076

1.968,0.06

1.97,0.07200000000000001

1.972,0.068

1.974,0.08

1.976,0.07200000000000001

1.978,0.064

1.98,0.076

1.982,0.08

1.984,0.064

1.986,0.06

1.988,0.064

1.99,0.076

1.992,0.06

1.994,0.064

1.996,0.076

1.998,0.076

2.0,0.076

2.0020000000000002,0.06

2.004,0.064

2.0060000000000002,0.076

2.008,0.07200000000000001

2.0100000000000002,0.068

2.012,0.06

2.0140000000000002,0.07200000000000001

2.016,0.076

2.0180000000000002,0.076

2.02,0.06

2.0220000000000002,0.064

2.024,0.07200000000000001

2.0260000000000002,0.076

2.028,0.068

2.0300000000000002,0.06

2.032,0.064

2.0340000000000003,0.076

2.036,0.07200000000000001

2.0380000000000003,0.068

2.04,0.06

2.0420000000000003,0.064

2.044,0.076

2.0460000000000003,0.07200000000000001

2.048,0.064

2.05,0.06

2.052,0.07200000000000001

2.054,0.076

2.056,0.07200000000000001

2.058,0.06

2.06,0.06

2.062,0.068

2.064,0.076

2.066,0.068

2.068,0.06

2.07,0.06

2.072,0.07200000000000001

2.074,0.07200000000000001

2.076,0.07200000000000001

2.078,0.056

2.08,0.056

2.082,0.068

2.084,0.076

2.086,0.07200000000000001

2.088,0.06

2.09,0.06

2.092,0.068

2.094,0.07200000000000001

2.096,0.07200000000000001

2.098,0.06

2.1,0.06

2.102,0.068

