####### Preamble ##########################
#	byt_nr=1
#	bit_nr=8
#	encdg=BIN
#	bn_fmt=RI
#	byt_or=MSB
#	nr_pt=10000
#	wfid="Ch1, DC coupling, 5.0E0 V/div, 1.0E0 s/div, 10000 points, Sample mode"
#	pt_fmt=Y
#	xincr=1.0E-3
#	pt_off=0
#	xzero=-5.0E0
#	xunit="s"
#	ymult=2.0E-1
#	yzero=0.0E0
#	yoff=5.7E1
#	yunit="V"
#######  Cursor ##########################
#VBA;IND;"s";-3.68E0;-4.02E0;4.0E0;3.4E-1;CURSOR1;1.6E0;-2.4E0;8.8E0;-8.0E0;1.68E1;CURSOR1;"V";CURSOR1;CURSOR1X;-3.24E1;-2.08E1;9.6E0;4.32E1;RECT;0.0E0;0.0E0;0.0E0;0.0E0;0.0E0;0.0E0;9.9E37;9.9E37;9.9E37;9.9E37;9.9E37;9.9E37;9.9E37;9.9E37;9.9E37;9.9E37;9.9E37;9.9E37
#######  Data ##########################
#RIB;REF1;CH1;1;10000;1
# Delete the above lines to open in excel ######

Time [s],volts [V]
0.0,64.0
0.001,67.6
0.002,66.8
0.003,66.6
0.004,66.6
0.005,66.6
0.006,66.6
0.007,67.4
0.008,67.4
0.009000000000000001,67.4
0.01,67.4
0.011,67.4
0.012,67.6
0.013000000000000001,67.4
0.014,67.2
0.015,67.6
0.016,67.6
0.017,67.4
0.018000000000000002,67.4
0.019,67.6
0.02,67.6
0.021,67.6
0.022,67.8
0.023,67.6
0.024,67.6
0.025,67.6
0.026000000000000002,67.6
0.027,67.8
0.028,67.6
0.029,67.8
0.03,67.6
0.031,67.6
0.032,67.8
0.033,67.6
0.034,67.8
0.035,67.8
0.036000000000000004,67.8
0.037,67.6
0.038,67.6
0.039,67.8
0.04,67.8
0.041,67.6
0.042,67.8
0.043000000000000003,67.8
0.044,67.8
0.045,68.0
0.046,68.0
0.047,68.0
0.048,68.0
0.049,67.8
0.05,68.0
0.051000000000000004,67.8
0.052000000000000005,68.2
0.053,68.0
0.054,68.0
0.055,68.0
0.056,67.8
0.057,68.0
0.058,68.0
0.059000000000000004,68.0
0.06,68.0
0.061,68.2
0.062,68.0
0.063,68.2
0.064,68.0
0.065,68.0
0.066,68.0
0.067,68.2
0.068,68.2
0.069,68.2
0.07,68.2
0.07100000000000001,68.2
0.07200000000000001,68.2
0.073,68.2
0.074,68.2
0.075,68.2
0.076,68.2
0.077,68.2
0.078,68.2
0.079,68.4
0.08,68.4
0.081,68.4
0.082,68.4
0.083,68.2
0.084,68.2
0.085,68.4
0.08600000000000001,68.6
0.08700000000000001,68.6
0.088,68.6
0.089,68.4
0.09,68.4
0.091,68.4
0.092,68.6
0.093,68.2
0.094,68.4
0.095,68.4
0.096,68.4
0.097,68.6
0.098,68.6
0.099,68.6
0.1,68.6
0.101,68.4
0.10200000000000001,68.6
0.10300000000000001,68.8
0.10400000000000001,68.6
0.105,68.8
0.106,68.6
0.107,68.8
0.108,68.8
0.109,68.8
0.11,68.8
0.111,68.6
0.112,68.6
0.113,68.8
0.114,68.8
0.115,68.6
0.116,68.8
0.117,68.8
0.11800000000000001,68.8
0.11900000000000001,68.8
0.12,68.8
0.121,69.0
0.122,69.0
0.123,68.8
0.124,69.2
0.125,69.0
0.126,68.8
0.127,69.0
0.128,69.0
0.129,69.0
0.13,68.8
0.131,68.8
0.132,69.0
0.133,69.2
0.134,69.2
0.135,69.0
0.136,69.0
0.137,69.2
0.138,69.2
0.139,69.4
0.14,69.0
0.14100000000000001,69.2
0.14200000000000002,69.0
0.14300000000000002,69.0
0.14400000000000002,69.0
0.145,69.2
0.146,69.4
0.147,69.2
0.148,69.2
0.149,69.0
0.15,69.2
0.151,69.0
0.152,69.2
0.153,69.2
0.154,69.4
0.155,69.4
0.156,69.2
0.157,69.4
0.158,69.6
0.159,69.2
0.16,69.4
0.161,69.4
0.162,69.4
0.163,69.4
0.164,69.6
0.165,69.6
0.166,69.4
0.167,69.4
0.168,69.4
0.169,69.6
0.17,69.6
0.171,69.6
0.17200000000000001,69.6
0.17300000000000001,69.6
0.17400000000000002,69.6
0.17500000000000002,69.6
0.176,69.6
0.177,69.8
0.178,69.8
0.179,69.8
0.18,69.8
0.181,69.8
0.182,69.6
0.183,69.8
0.184,69.6
0.185,69.8
0.186,69.8
0.187,69.8
0.188,69.8
0.189,69.6
0.19,69.8
0.191,69.8
0.192,69.8
0.193,70.0
0.194,70.0
0.195,69.6
0.196,70.0
0.197,70.0
0.198,69.8
0.199,70.0
0.2,70.0
0.201,69.8
0.202,69.8
0.203,70.0
0.20400000000000001,70.2
0.20500000000000002,70.0
0.20600000000000002,70.2
0.20700000000000002,70.0
0.20800000000000002,70.0
0.209,70.4
0.21,70.2
0.211,70.0
0.212,70.2
0.213,70.2
0.214,70.4
0.215,70.2
0.216,70.0
0.217,70.0
0.218,70.2
0.219,70.2
0.22,70.2
0.221,70.4
0.222,70.4
0.223,70.4
0.224,70.2
0.225,70.4
0.226,70.4
0.227,70.4
0.228,70.4
0.229,70.2
0.23,70.2
0.231,70.2
0.232,70.6
0.233,70.4
0.234,70.2
0.23500000000000001,70.2
0.23600000000000002,70.4
0.23700000000000002,70.4
0.23800000000000002,70.6
0.23900000000000002,70.6
0.24,70.4
0.241,70.4
0.242,70.4
0.243,70.6
0.244,70.6
0.245,70.4
0.246,70.2
0.247,70.6
0.248,70.6
0.249,70.6
0.25,70.8
0.251,70.4
0.252,70.6
0.253,70.6
0.254,70.4
0.255,70.4
0.256,70.8
0.257,70.6
0.258,70.8
0.259,70.6
0.26,70.6
0.261,70.8
0.262,70.8
0.263,70.8
0.264,70.8
0.265,70.8
0.266,70.8
0.267,70.8
0.268,71.0
0.269,70.6
0.27,70.8
0.271,70.8
0.272,70.8
0.273,70.8
0.274,70.6
0.275,71.0
0.276,70.8
0.277,71.0
0.278,71.0
0.279,71.0
0.28,71.0
0.281,70.8
0.28200000000000003,71.0
0.28300000000000003,70.8
0.28400000000000003,71.0
0.28500000000000003,71.0
0.28600000000000003,71.0
0.28700000000000003,71.0
0.28800000000000003,70.8
0.289,71.0
0.29,71.0
0.291,70.8
0.292,71.0
0.293,71.0
0.294,70.8
0.295,71.2
0.296,71.0
0.297,71.0
0.298,71.0
0.299,71.2
0.3,71.0
0.301,71.0
0.302,71.0
0.303,71.2
0.304,70.8
0.305,71.2
0.306,71.2
0.307,71.0
0.308,71.2
0.309,71.4
0.31,71.2
0.311,71.2
0.312,71.2
0.313,71.2
0.314,71.4
0.315,71.0
0.316,71.2
0.317,71.2
0.318,71.6
0.319,71.2
0.32,71.2
0.321,71.4
0.322,71.4
0.323,71.0
0.324,71.4
0.325,71.4
0.326,71.6
0.327,71.4
0.328,71.2
0.329,71.2
0.33,71.2
0.331,71.4
0.332,71.6
0.333,71.2
0.334,71.4
0.335,71.6
0.336,71.6
0.337,71.6
0.338,71.4
0.339,71.4
0.34,71.4
0.341,71.4
0.342,71.6
0.343,71.6
0.34400000000000003,71.6
0.34500000000000003,71.4
0.34600000000000003,71.6
0.34700000000000003,71.6
0.34800000000000003,71.6
0.34900000000000003,71.6
0.35000000000000003,71.4
0.35100000000000003,71.6
0.352,71.4
0.353,71.6
0.354,71.4
0.355,71.8
0.356,71.6
0.357,71.6
0.358,71.6
0.359,71.4
0.36,71.6
0.361,71.8
0.362,71.8
0.363,71.8
0.364,71.6
0.365,71.8
0.366,71.6
0.367,71.8
0.368,71.6
0.369,71.6
0.37,72.0
0.371,71.6
0.372,71.8
0.373,71.6
0.374,71.6
0.375,71.8
0.376,72.0
0.377,71.8
0.378,72.0
0.379,72.0
0.38,71.6
0.381,72.0
0.382,71.8
0.383,72.0
0.384,72.0
0.385,72.0
0.386,71.8
0.387,72.0
0.388,72.0
0.389,71.8
0.39,71.8
0.391,72.0
0.392,71.8
0.393,71.8
0.394,72.0
0.395,72.0
0.396,71.8
0.397,72.0
0.398,72.2
0.399,71.8
0.4,72.0
0.401,71.8
0.402,72.0
0.403,72.0
0.404,72.0
0.405,72.0
0.406,72.0
0.40700000000000003,72.2
0.40800000000000003,72.4
0.40900000000000003,72.0
0.41000000000000003,72.2
0.41100000000000003,72.2
0.41200000000000003,72.0
0.41300000000000003,72.2
0.41400000000000003,72.0
0.41500000000000004,72.2
0.41600000000000004,72.2
0.417,72.2
0.418,72.0
0.419,72.0
0.42,72.2
0.421,72.2
0.422,72.2
0.423,72.2
0.424,72.0
0.425,72.4
0.426,72.2
0.427,72.2
0.428,72.0
0.429,72.2
0.43,72.2
0.431,72.2
0.432,72.0
0.433,72.2
0.434,72.2
0.435,72.2
0.436,72.2
0.437,72.0
0.438,72.2
0.439,72.2
0.44,72.2
0.441,72.4
0.442,72.4
0.443,72.4
0.444,72.2
0.445,72.2
0.446,72.4
0.447,72.4
0.448,72.4
0.449,72.2
0.45,72.6
0.451,72.2
0.452,72.4
0.453,72.4
0.454,72.4
0.455,72.4
0.456,72.6
0.457,72.4
0.458,72.4
0.459,72.2
0.46,72.6
0.461,72.4
0.462,72.6
0.463,72.2
0.464,72.4
0.465,72.4
0.466,72.4
0.467,72.4
0.468,72.4
0.46900000000000003,72.6
0.47000000000000003,72.2
0.47100000000000003,72.4
0.47200000000000003,72.4
0.47300000000000003,72.6
0.47400000000000003,72.4
0.47500000000000003,72.6
0.47600000000000003,72.6
0.47700000000000004,72.6
0.47800000000000004,72.6
0.47900000000000004,72.4
0.48,72.6
0.481,72.4
0.482,72.8
0.483,72.6
0.484,72.8
0.485,72.4
0.486,72.4
0.487,72.6
0.488,72.6
0.489,72.6
0.49,72.6
0.491,72.6
0.492,72.6
0.493,72.6
0.494,72.8
0.495,72.6
0.496,72.8
0.497,72.8
0.498,72.4
0.499,72.6
0.5,72.8
0.501,72.8
0.502,72.6
0.503,72.6
0.504,72.6
0.505,72.6
0.506,72.8
0.507,72.8
0.508,72.8
0.509,72.6
0.51,72.6
0.511,72.8
0.512,73.0
0.513,72.6
0.514,72.8
0.515,72.8
0.516,72.8
0.517,72.8
0.518,72.8
0.519,72.8
0.52,72.8
0.521,72.8
0.522,72.8
0.523,72.8
0.524,72.8
0.525,72.6
0.526,72.6
0.527,72.6
0.528,72.8
0.529,73.0
0.53,73.0
0.531,72.6
0.532,72.8
0.533,72.8
0.534,72.8
0.535,72.8
0.536,72.6
0.537,72.8
0.538,72.6
0.539,72.8
0.54,73.0
0.541,73.0
0.542,72.8
0.543,73.0
0.544,72.8
0.545,72.8
0.546,73.0
0.547,72.8
0.548,72.8
0.549,72.8
0.55,73.0
0.551,72.8
0.552,73.0
0.553,72.8
0.554,73.0
0.555,72.8
0.556,72.8
0.557,72.8
0.558,72.8
0.559,72.8
0.56,73.0
0.561,72.8
0.562,73.0
0.5630000000000001,73.0
0.5640000000000001,72.8
0.5650000000000001,72.8
0.5660000000000001,72.8
0.5670000000000001,72.8
0.5680000000000001,73.0
0.5690000000000001,72.8
0.5700000000000001,72.8
0.5710000000000001,72.8
0.5720000000000001,73.0
0.5730000000000001,73.0
0.5740000000000001,73.0
0.5750000000000001,73.0
0.5760000000000001,73.0
0.577,73.0
0.578,72.8
0.579,73.0
0.58,72.8
0.581,73.0
0.582,73.0
0.583,73.0
0.584,73.0
0.585,72.8
0.586,73.0
0.587,72.8
0.588,72.6
0.589,73.0
0.59,73.0
0.591,73.2
0.592,72.8
0.593,73.0
0.594,73.0
0.595,73.0
0.596,73.0
0.597,73.0
0.598,72.8
0.599,73.0
0.6,73.0
0.601,72.8
0.602,73.0
0.603,73.0
0.604,73.0
0.605,73.2
0.606,73.2
0.607,73.0
0.608,73.2
0.609,73.2
0.61,73.0
0.611,73.4
0.612,73.0
0.613,73.2
0.614,73.0
0.615,73.2
0.616,73.0
0.617,73.0
0.618,73.0
0.619,73.0
0.62,72.8
0.621,73.2
0.622,73.0
0.623,73.0
0.624,73.0
0.625,73.0
0.626,73.0
0.627,72.8
0.628,73.2
0.629,73.2
0.63,72.8
0.631,72.8
0.632,73.0
0.633,73.0
0.634,73.2
0.635,73.0
0.636,73.0
0.637,73.0
0.638,73.0
0.639,73.0
0.64,73.2
0.641,73.0
0.642,73.0
0.643,73.0
0.644,73.2
0.645,73.0
0.646,73.2
0.647,72.8
0.648,73.2
0.649,73.0
0.65,73.0
0.651,73.0
0.652,73.2
0.653,73.2
0.654,73.0
0.655,72.8
0.656,72.8
0.657,73.0
0.658,73.2
0.659,73.0
0.66,73.0
0.661,72.8
0.662,73.0
0.663,73.0
0.664,72.8
0.665,73.0
0.666,72.8
0.667,73.2
0.668,73.0
0.669,73.0
0.67,73.0
0.671,73.0
0.672,73.0
0.673,72.8
0.674,73.0
0.675,73.0
0.676,73.0
0.677,72.8
0.678,73.0
0.679,73.2
0.68,73.2
0.681,73.2
0.682,73.0
0.683,72.8
0.684,73.0
0.685,73.0
0.686,73.0
0.687,72.8
0.6880000000000001,73.0
0.6890000000000001,72.8
0.6900000000000001,72.8
0.6910000000000001,72.8
0.6920000000000001,73.0
0.6930000000000001,73.0
0.6940000000000001,73.0
0.6950000000000001,73.2
0.6960000000000001,72.8
0.6970000000000001,72.8
0.6980000000000001,72.8
0.6990000000000001,73.0
0.7000000000000001,72.8
0.7010000000000001,73.0
0.7020000000000001,73.0
0.7030000000000001,73.0
0.704,72.8
0.705,73.0
0.706,72.8
0.707,73.0
0.708,72.8
0.709,73.0
0.71,72.8
0.711,72.8
0.712,72.8
0.713,73.0
0.714,72.8
0.715,73.0
0.716,73.0
0.717,73.0
0.718,73.0
0.719,72.8
0.72,72.8
0.721,73.0
0.722,72.8
0.723,73.0
0.724,72.8
0.725,72.6
0.726,72.6
0.727,73.0
0.728,72.8
0.729,72.8
0.73,72.8
0.731,73.0
0.732,73.0
0.733,72.6
0.734,72.8
0.735,72.8
0.736,72.8
0.737,72.8
0.738,72.8
0.739,73.0
0.74,72.8
0.741,72.8
0.742,72.8
0.743,73.0
0.744,72.6
0.745,72.8
0.746,72.8
0.747,72.8
0.748,72.8
0.749,72.8
0.75,72.6
0.751,72.8
0.752,72.8
0.753,72.8
0.754,72.6
0.755,72.6
0.756,72.6
0.757,72.6
0.758,72.6
0.759,72.8
0.76,72.6
0.761,72.6
0.762,72.6
0.763,72.8
0.764,72.6
0.765,72.6
0.766,72.6
0.767,72.8
0.768,72.6
0.769,72.4
0.77,72.6
0.771,72.6
0.772,72.8
0.773,72.6
0.774,72.6
0.775,72.6
0.776,72.4
0.777,72.8
0.778,72.6
0.779,72.6
0.78,72.4
0.781,72.6
0.782,72.4
0.783,72.6
0.784,72.8
0.785,72.6
0.786,72.4
0.787,72.6
0.788,72.4
0.789,72.6
0.79,72.6
0.791,72.6
0.792,72.4
0.793,72.6
0.794,72.6
0.795,72.4
0.796,72.4
0.797,72.6
0.798,72.6
0.799,72.6
0.8,72.4
0.801,72.4
0.802,72.4
0.803,72.6
0.804,72.6
0.805,72.6
0.806,72.4
0.807,72.4
0.808,72.6
0.809,72.6
0.81,72.4
0.811,72.4
0.812,72.4
0.8130000000000001,72.6
0.8140000000000001,72.2
0.8150000000000001,72.6
0.8160000000000001,72.4
0.8170000000000001,72.6
0.8180000000000001,72.2
0.8190000000000001,72.6
0.8200000000000001,72.6
0.8210000000000001,72.6
0.8220000000000001,72.4
0.8230000000000001,72.2
0.8240000000000001,72.4
0.8250000000000001,72.2
0.8260000000000001,72.4
0.8270000000000001,72.4
0.8280000000000001,72.4
0.8290000000000001,72.4
0.8300000000000001,72.4
0.8310000000000001,72.4
0.8320000000000001,72.4
0.833,72.0
0.834,72.2
0.835,72.2
0.836,72.2
0.837,72.2
0.838,72.2
0.839,72.2
0.84,72.2
0.841,72.4
0.842,72.4
0.843,72.2
0.844,72.2
0.845,72.0
0.846,72.2
0.847,72.2
0.848,72.2
0.849,72.0
0.85,72.2
0.851,72.2
0.852,72.2
0.853,72.0
0.854,72.0
0.855,72.0
0.856,72.2
0.857,72.2
0.858,72.2
0.859,72.0
0.86,72.0
0.861,72.2
0.862,72.2
0.863,72.0
0.864,72.0
0.865,72.0
0.866,72.0
0.867,72.0
0.868,71.8
0.869,72.4
0.87,72.0
0.871,72.0
0.872,72.0
0.873,72.2
0.874,72.2
0.875,71.8
0.876,72.0
0.877,72.0
0.878,72.0
0.879,72.0
0.88,72.0
0.881,71.8
0.882,72.0
0.883,72.0
0.884,71.8
0.885,71.8
0.886,72.0
0.887,72.0
0.888,71.8
0.889,72.0
0.89,72.0
0.891,71.8
0.892,72.0
0.893,72.0
0.894,71.8
0.895,71.8
0.896,71.8
0.897,72.0
0.898,71.6
0.899,72.0
0.9,72.0
0.901,71.8
0.902,72.0
0.903,71.8
0.904,71.8
0.905,72.0
0.906,72.0
0.907,71.8
0.908,71.6
0.909,71.8
0.91,71.6
0.911,71.8
0.912,71.8
0.913,71.8
0.914,71.6
0.915,71.6
0.916,71.8
0.917,71.4
0.918,71.8
0.919,71.6
0.92,71.6
0.921,71.6
0.922,71.6
0.923,71.6
0.924,71.4
0.925,71.6
0.926,71.6
0.927,71.4
0.928,71.4
0.929,71.4
0.93,71.6
0.931,71.6
0.932,71.4
0.933,71.6
0.934,71.4
0.935,71.4
0.936,71.6
0.937,71.6
0.9380000000000001,71.6
0.9390000000000001,71.4
0.9400000000000001,71.6
0.9410000000000001,71.6
0.9420000000000001,71.6
0.9430000000000001,71.6
0.9440000000000001,71.2
0.9450000000000001,71.4
0.9460000000000001,71.2
0.9470000000000001,71.2
0.9480000000000001,71.4
0.9490000000000001,71.4
0.9500000000000001,71.4
0.9510000000000001,71.4
0.9520000000000001,71.2
0.9530000000000001,71.2
0.9540000000000001,71.2
0.9550000000000001,71.2
0.9560000000000001,71.4
0.9570000000000001,71.4
0.9580000000000001,71.0
0.9590000000000001,71.2
0.96,71.4
0.961,71.2
0.962,71.2
0.963,71.0
0.964,71.2
0.965,71.0
0.966,71.2
0.967,71.0
0.968,71.2
0.969,71.0
0.97,71.2
0.971,71.2
0.972,71.0
0.973,71.2
0.974,71.0
0.975,71.0
0.976,71.0
0.977,71.2
0.978,71.2
0.979,71.0
0.98,70.8
0.981,71.0
0.982,71.2
0.983,71.0
0.984,71.0
0.985,71.0
0.986,71.0
0.987,71.0
0.988,71.0
0.989,71.0
0.99,70.8
0.991,71.0
0.992,71.0
0.993,70.8
0.994,70.8
0.995,70.8
0.996,71.0
0.997,70.8
0.998,70.8
0.999,70.8
1.0,70.6
1.0010000000000001,71.0
1.002,71.0
1.0030000000000001,70.8
1.004,70.8
1.0050000000000001,70.8
1.006,71.0
1.0070000000000001,70.6
1.008,70.6
1.0090000000000001,70.8
1.01,70.6
1.0110000000000001,70.8
1.012,70.6
1.0130000000000001,70.8
1.014,70.6
1.0150000000000001,70.8
1.016,70.6
1.0170000000000001,70.8
1.018,70.6
1.0190000000000001,70.6
1.02,70.6
1.0210000000000001,70.6
1.022,70.4
1.0230000000000001,70.4
1.024,70.6
1.025,70.6
1.026,70.4
1.027,70.6
1.028,70.4
1.029,70.6
1.03,70.6
1.031,70.2
1.032,70.6
1.033,70.4
1.034,70.4
1.035,70.4
1.036,70.4
1.037,70.4
1.038,70.4
1.039,70.4
1.04,70.4
1.041,70.6
1.042,70.4
1.043,70.2
1.044,70.4
1.045,70.2
1.046,70.2
1.047,70.2
1.048,70.4
1.049,70.4
1.05,70.4
1.051,70.2
1.052,70.2
1.053,70.2
1.054,70.0
1.055,70.4
1.056,70.2
1.057,70.0
1.058,70.2
1.059,70.2
1.06,70.2
1.061,70.2
1.062,70.0
1.063,70.2
1.064,70.0
1.065,70.0
1.066,70.0
1.067,70.0
1.068,70.0
1.069,70.0
1.07,70.0
1.071,70.2
1.072,70.0
1.073,69.8
1.074,70.0
1.075,69.8
1.076,69.8
1.077,70.0
1.078,70.0
1.079,69.6
1.08,70.0
1.081,70.0
1.082,69.8
1.083,69.8
1.084,69.8
1.085,69.6
1.086,69.8
1.087,69.6
1.088,69.8
1.089,69.6
1.09,69.6
1.091,69.8
1.092,69.6
1.093,69.6
1.094,69.6
1.095,69.8
1.096,69.6
1.097,69.6
1.098,69.8
1.099,69.6
1.1,69.6
1.101,69.6
1.102,69.4
1.103,69.6
1.104,69.4
1.105,69.6
1.106,69.6
1.107,69.2
1.108,69.6
1.109,69.2
1.11,69.4
1.111,69.2
1.112,69.6
1.113,69.2
1.114,69.4
1.115,69.4
1.116,69.2
1.117,69.4
1.118,69.4
1.119,69.2
1.12,69.2
1.121,69.4
1.122,69.0
1.123,69.2
1.124,69.2
1.125,69.2
1.1260000000000001,69.4
1.127,69.2
1.1280000000000001,69.2
1.129,69.2
1.1300000000000001,69.2
1.131,69.2
1.1320000000000001,69.0
1.133,69.0
1.1340000000000001,69.2
1.135,69.0
1.1360000000000001,69.2
1.137,69.0
1.1380000000000001,69.0
1.139,69.0
1.1400000000000001,69.0
1.141,69.0
1.1420000000000001,69.0
1.143,69.0
1.1440000000000001,68.8
1.145,69.0
1.1460000000000001,68.8
1.147,69.0
1.1480000000000001,68.8
1.149,68.8
1.1500000000000001,68.8
1.151,68.8
1.1520000000000001,68.8
1.153,68.8
1.154,69.0
1.155,68.8
1.156,68.8
1.157,68.8
1.158,69.0
1.159,68.6
1.16,68.6
1.161,68.8
1.162,68.8
1.163,68.6
1.164,68.8
1.165,68.8
1.166,68.6
1.167,68.6
1.168,68.6
1.169,68.6
1.17,68.8
1.171,68.8
1.172,68.4
1.173,68.6
1.174,68.6
1.175,68.6
1.176,68.4
1.177,68.4
1.178,68.6
1.179,68.4
1.18,68.6
1.181,68.6
1.182,68.4
1.183,68.4
1.184,68.2
1.185,68.4
1.186,68.4
1.187,68.4
1.188,68.2
1.189,68.4
1.19,68.4
1.191,68.4
1.192,68.2
1.193,68.2
1.194,68.4
1.195,68.2
1.196,68.4
1.197,68.4
1.198,68.2
1.199,68.2
1.2,68.4
1.201,68.2
1.202,68.2
1.203,68.2
1.204,68.0
1.205,68.2
1.206,68.2
1.207,68.0
1.208,67.8
1.209,68.0
1.21,68.2
1.211,67.8
1.212,68.0
1.213,68.2
1.214,68.2
1.215,68.0
1.216,68.0
1.217,68.0
1.218,68.2
1.219,68.0
1.22,67.8
1.221,67.8
1.222,67.8
1.223,68.0
1.224,67.8
1.225,68.0
1.226,67.8
1.227,68.0
1.228,68.0
1.229,67.8
1.23,67.8
1.231,67.8
1.232,67.8
1.233,67.8
1.234,67.8
1.235,67.6
1.236,67.6
1.237,67.6
1.238,67.6
1.239,67.6
1.24,67.6
1.241,67.6
1.242,67.8
1.243,67.6
1.244,67.6
1.245,67.8
1.246,67.6
1.247,67.6
1.248,67.8
1.249,67.4
1.25,67.6
1.2510000000000001,67.6
1.252,67.8
1.2530000000000001,67.6
1.254,67.4
1.2550000000000001,67.6
1.256,67.4
1.2570000000000001,67.6
1.258,67.4
1.2590000000000001,67.4
1.26,67.4
1.2610000000000001,67.4
1.262,67.4
1.2630000000000001,67.4
1.264,67.4
1.2650000000000001,67.6
1.266,67.2
1.2670000000000001,67.4
1.268,67.4
1.2690000000000001,67.4
1.27,67.4
1.2710000000000001,67.2
1.272,67.4
1.2730000000000001,67.2
1.274,67.2
1.2750000000000001,67.2
1.276,67.2
1.2770000000000001,67.2
1.278,67.0
1.2790000000000001,67.2
1.28,67.2
1.281,67.2
1.282,67.2
1.283,67.2
1.284,67.2
1.285,67.2
1.286,67.2
1.287,66.8
1.288,67.0
1.289,67.0
1.29,67.0
1.291,67.0
1.292,67.0
1.293,67.0
1.294,67.0
