####### Preamble ##########################
#	byt_nr=1
#	bit_nr=8
#	encdg=BIN
#	bn_fmt=RI
#	byt_or=MSB
#	nr_pt=10000
#	wfid="Ch1, DC coupling, 5.0E0 V/div, 1.0E0 s/div, 10000 points, Sample mode"
#	pt_fmt=Y
#	xincr=1.0E-3
#	pt_off=0
#	xzero=-5.0E0
#	xunit="s"
#	ymult=2.0E-1
#	yzero=0.0E0
#	yoff=5.7E1
#	yunit="V"
#######  Cursor ##########################
#VBA;IND;"s";-3.68E0;-4.02E0;8.7E0;3.4E-1;CURSOR1;-4.6E0;4.1E0;-1.26E1;-2.1E1;8.4E0;CURSOR1;"V";CURSOR1;CURSOR1X;-3.24E1;-2.08E1;9.6E0;4.32E1;RECT;0.0E0;0.0E0;0.0E0;0.0E0;0.0E0;0.0E0;9.9E37;9.9E37;9.9E37;9.9E37;9.9E37;9.9E37;9.9E37;9.9E37;9.9E37;9.9E37;9.9E37;9.9E37
#######  Data ##########################
#RIB;REF1;CH1;1;10000;1
# Delete the above lines to open in excel ######

Time [s],volts [V]
0.0,64.0
0.001,67.6
0.002,66.8
0.003,66.6
0.004,66.6
0.005,66.6
0.006,66.6
0.007,64.6
0.008,64.8
0.009000000000000001,64.6
0.01,64.8
0.011,64.8
0.012,64.8
0.013000000000000001,64.8
0.014,64.6
0.015,64.8
0.016,64.6
0.017,64.8
0.018000000000000002,64.8
0.019,65.0
0.02,65.0
0.021,65.0
0.022,64.6
0.023,65.0
0.024,65.0
0.025,65.2
0.026000000000000002,65.2
0.027,65.2
0.028,65.0
0.029,65.2
0.03,65.2
0.031,65.2
0.032,65.2
0.033,65.2
0.034,65.4
0.035,65.4
0.036000000000000004,65.4
0.037,65.2
0.038,65.4
0.039,65.4
0.04,65.6
0.041,65.6
0.042,65.6
0.043000000000000003,65.8
0.044,65.4
0.045,65.8
0.046,65.6
0.047,65.8
0.048,65.8
0.049,66.0
0.05,65.6
0.051000000000000004,65.8
0.052000000000000005,66.0
0.053,66.0
0.054,65.8
0.055,66.2
0.056,66.0
0.057,66.0
0.058,66.2
0.059000000000000004,66.4
0.06,66.2
0.061,66.2
0.062,66.4
0.063,66.4
0.064,66.2
0.065,66.4
0.066,66.4
0.067,66.4
0.068,66.6
0.069,66.8
0.07,66.6
0.07100000000000001,66.8
0.07200000000000001,66.8
0.073,66.6
0.074,66.8
0.075,66.8
0.076,66.8
0.077,66.8
0.078,66.8
0.079,67.0
0.08,66.8
0.081,67.2
0.082,67.2
0.083,67.2
0.084,67.2
0.085,67.4
0.08600000000000001,67.4
0.08700000000000001,67.4
0.088,67.4
0.089,67.4
0.09,67.6
0.091,67.6
0.092,67.4
0.093,67.6
0.094,67.8
0.095,67.8
0.096,67.8
0.097,68.0
0.098,68.0
0.099,67.8
0.1,68.0
0.101,67.8
0.10200000000000001,68.0
0.10300000000000001,68.0
0.10400000000000001,68.0
0.105,68.2
0.106,68.4
0.107,68.4
0.108,68.6
0.109,68.4
0.11,68.4
0.111,68.6
0.112,68.6
0.113,68.8
0.114,68.8
0.115,68.6
0.116,68.8
0.117,68.8
0.11800000000000001,68.8
0.11900000000000001,69.0
0.12,69.0
0.121,68.8
0.122,69.2
0.123,69.2
0.124,69.2
0.125,69.2
0.126,69.2
0.127,69.4
0.128,69.4
0.129,69.4
0.13,69.6
0.131,69.4
0.132,69.4
0.133,69.6
0.134,69.4
0.135,69.6
0.136,69.6
0.137,69.8
0.138,70.0
0.139,70.0
0.14,70.0
0.14100000000000001,70.0
0.14200000000000002,70.0
0.14300000000000002,70.0
0.14400000000000002,70.0
0.145,69.8
0.146,70.4
0.147,70.2
0.148,70.4
0.149,70.2
0.15,70.2
0.151,70.4
0.152,70.4
0.153,70.6
0.154,70.6
0.155,70.6
0.156,70.4
0.157,70.8
0.158,70.8
0.159,70.6
0.16,70.8
0.161,70.8
0.162,70.6
0.163,70.8
0.164,70.8
0.165,71.0
0.166,70.8
0.167,71.2
0.168,71.2
0.169,71.0
0.17,71.2
0.171,71.0
0.17200000000000001,71.2
0.17300000000000001,71.2
0.17400000000000002,71.4
0.17500000000000002,71.2
0.176,71.4
0.177,71.2
0.178,71.4
0.179,71.4
0.18,71.4
0.181,71.6
0.182,71.6
0.183,71.6
0.184,71.6
0.185,71.6
0.186,71.6
0.187,72.0
0.188,72.0
0.189,71.8
0.19,71.8
0.191,71.8
0.192,71.8
0.193,72.0
0.194,72.0
0.195,72.0
0.196,71.8
0.197,72.0
0.198,72.0
0.199,72.0
0.2,72.0
0.201,72.0
0.202,72.0
0.203,72.0
0.20400000000000001,72.2
0.20500000000000002,72.4
0.20600000000000002,72.4
0.20700000000000002,72.0
0.20800000000000002,72.4
0.209,72.4
0.21,72.2
0.211,72.4
0.212,72.2
0.213,72.4
0.214,72.4
0.215,72.4
0.216,72.4
0.217,72.4
0.218,72.4
0.219,72.4
0.22,72.4
0.221,72.4
0.222,72.4
0.223,72.6
0.224,72.6
0.225,72.6
0.226,72.4
0.227,72.6
0.228,72.6
0.229,72.6
0.23,72.6
0.231,72.4
0.232,72.6
0.233,72.6
0.234,72.6
0.23500000000000001,72.4
0.23600000000000002,72.8
0.23700000000000002,72.8
0.23800000000000002,73.0
0.23900000000000002,72.6
0.24,72.8
0.241,73.0
0.242,72.8
0.243,72.8
0.244,72.6
0.245,72.8
0.246,73.0
0.247,72.8
0.248,72.8
0.249,73.0
0.25,73.0
0.251,72.8
0.252,72.8
0.253,72.8
0.254,72.8
0.255,72.8
0.256,72.8
0.257,72.8
0.258,72.8
0.259,72.8
0.26,73.0
0.261,72.8
0.262,72.8
0.263,72.8
0.264,72.8
0.265,72.8
0.266,72.8
0.267,72.8
0.268,72.8
0.269,73.0
0.27,72.8
0.271,72.6
0.272,72.8
0.273,72.8
0.274,72.8
0.275,72.6
0.276,72.4
0.277,72.8
0.278,72.6
0.279,72.6
0.28,72.4
0.281,72.8
0.28200000000000003,72.6
0.28300000000000003,72.6
0.28400000000000003,72.6
0.28500000000000003,72.6
0.28600000000000003,72.6
0.28700000000000003,72.6
0.28800000000000003,72.6
0.289,72.4
0.29,72.6
0.291,72.2
0.292,72.6
0.293,72.4
0.294,72.4
0.295,72.4
0.296,72.6
0.297,72.4
0.298,72.6
0.299,72.2
0.3,72.2
0.301,72.2
0.302,72.2
0.303,72.2
0.304,72.4
0.305,72.2
0.306,72.2
0.307,72.2
0.308,72.0
0.309,72.2
0.31,72.2
0.311,72.0
0.312,72.0
0.313,71.8
0.314,71.8
0.315,71.8
0.316,72.2
0.317,72.0
0.318,72.0
0.319,71.8
0.32,71.8
0.321,71.8
0.322,72.0
0.323,71.6
0.324,71.8
0.325,71.6
0.326,71.8
0.327,71.6
0.328,71.6
0.329,71.4
0.33,71.4
0.331,71.6
0.332,71.4
0.333,71.4
0.334,71.2
0.335,71.4
0.336,71.4
0.337,71.4
0.338,71.2
0.339,71.2
0.34,71.4
0.341,70.8
0.342,71.2
0.343,71.0
0.34400000000000003,71.0
0.34500000000000003,71.2
0.34600000000000003,71.0
0.34700000000000003,70.8
0.34800000000000003,70.8
0.34900000000000003,71.0
0.35000000000000003,70.8
0.35100000000000003,70.6
0.352,70.8
0.353,70.6
0.354,70.6
0.355,70.6
0.356,70.6
0.357,70.4
0.358,70.6
0.359,70.6
0.36,70.4
0.361,70.4
0.362,70.2
0.363,70.6
0.364,70.2
0.365,70.2
0.366,70.4
0.367,70.0
0.368,70.0
0.369,70.0
0.37,69.8
0.371,70.0
0.372,70.0
0.373,70.0
0.374,69.8
0.375,69.6
0.376,69.8
0.377,69.6
0.378,69.6
0.379,69.8
0.38,69.4
0.381,69.4
0.382,69.4
0.383,69.2
0.384,69.2
0.385,69.2
0.386,69.2
0.387,69.2
0.388,69.0
0.389,68.8
0.39,69.0
0.391,69.0
0.392,69.0
0.393,69.0
0.394,68.8
0.395,68.8
0.396,68.6
0.397,68.6
0.398,68.6
0.399,68.8
0.4,68.6
0.401,68.4
0.402,68.4
0.403,68.4
0.404,68.2
0.405,68.2
0.406,68.2
0.40700000000000003,68.2
0.40800000000000003,68.2
0.40900000000000003,68.2
0.41000000000000003,68.0
0.41100000000000003,68.0
0.41200000000000003,67.8
0.41300000000000003,67.8
0.41400000000000003,67.8
0.41500000000000004,67.8
0.41600000000000004,67.8
0.417,67.8
0.418,67.6
0.419,67.6
0.42,67.4
0.421,67.4
0.422,67.6
0.423,67.4
0.424,67.4
0.425,67.2
0.426,67.4
0.427,67.2
0.428,67.0
0.429,67.2
0.43,67.2
0.431,67.2
0.432,67.0
0.433,66.8
0.434,66.8
0.435,66.8
0.436,66.8
0.437,66.6
0.438,66.8
0.439,66.8
0.44,66.6
0.441,66.6
0.442,66.6
0.443,66.4
0.444,66.4
0.445,66.4
0.446,66.2
0.447,66.2
0.448,66.4
0.449,66.2
0.45,66.0
0.451,66.2
0.452,66.0
0.453,66.0
0.454,66.0
0.455,66.2
0.456,66.0
0.457,65.8
0.458,66.0
0.459,65.8
0.46,65.6
0.461,65.8
0.462,65.8
0.463,65.6
0.464,65.6
0.465,65.6
0.466,65.4
0.467,65.4
0.468,65.6
0.46900000000000003,65.2
0.47000000000000003,65.6
0.47100000000000003,65.6
0.47200000000000003,65.4
0.47300000000000003,65.4
0.47400000000000003,65.0
0.47500000000000003,65.2
0.47600000000000003,65.0
0.47700000000000004,65.2
0.47800000000000004,65.2
0.47900000000000004,65.2
0.48,65.0
0.481,65.0
0.482,64.6
0.483,65.0
0.484,65.0
0.485,64.8
0.486,65.0
0.487,64.8
0.488,64.8
0.489,64.8
0.49,64.8
0.491,64.8
0.492,64.4
0.493,64.6
0.494,64.8
0.495,64.6
0.496,64.6
0.497,64.2
0.498,64.4
0.499,64.4
0.5,64.4
0.501,64.4
0.502,64.4
0.503,64.4
0.504,64.4
0.505,64.4
0.506,64.4
0.507,64.2
0.508,64.2
0.509,64.2
0.51,64.2
0.511,64.2
0.512,64.2
0.513,64.2
0.514,64.2
0.515,64.2
0.516,64.2
0.517,64.0
0.518,64.0
0.519,64.0
0.52,64.2
0.521,64.2
0.522,64.2
0.523,64.0
0.524,64.0
0.525,64.0
0.526,64.0
0.527,64.0
0.528,63.8
0.529,64.0
0.53,64.0
0.531,64.0
0.532,64.0
0.533,64.0
0.534,64.0
0.535,64.0
0.536,63.8
0.537,64.0
0.538,64.0
0.539,63.6
0.54,64.0
0.541,63.8
0.542,64.0
0.543,64.0
0.544,63.8
0.545,63.6
0.546,64.0
0.547,64.0
0.548,63.8
0.549,63.8
0.55,63.8
0.551,63.6
0.552,63.8
0.553,63.8
0.554,64.0
0.555,63.8
0.556,64.0
0.557,63.8
0.558,63.6
0.559,63.6
0.56,63.8
0.561,63.8
0.562,63.6
0.5630000000000001,63.8
0.5640000000000001,64.0
0.5650000000000001,63.8
0.5660000000000001,64.0
0.5670000000000001,64.0
0.5680000000000001,63.8
0.5690000000000001,64.0
0.5700000000000001,64.0
0.5710000000000001,63.8
0.5720000000000001,64.0
0.5730000000000001,63.8
0.5740000000000001,63.8
0.5750000000000001,63.8
0.5760000000000001,64.0
0.577,64.0
0.578,64.2
0.579,63.8
0.58,64.0
0.581,64.0
0.582,64.2
0.583,64.2
0.584,64.2
0.585,64.0
0.586,64.0
0.587,64.0
0.588,63.8
0.589,64.2
0.59,64.2
0.591,64.0
0.592,64.2
0.593,64.2
0.594,64.2
0.595,64.2
0.596,64.0
0.597,64.0
0.598,64.2
0.599,64.0
0.6,64.2
0.601,64.2
0.602,64.4
0.603,64.0
0.604,64.2
0.605,64.4
0.606,64.4
0.607,64.4
0.608,64.2
0.609,64.6
0.61,64.4
0.611,64.4
0.612,64.4
0.613,64.6
0.614,64.6
0.615,64.6
0.616,64.4
0.617,64.4
0.618,64.4
0.619,64.6
0.62,64.6
0.621,64.8
0.622,64.6
0.623,64.6
0.624,64.8
0.625,65.0
0.626,64.6
0.627,64.6
0.628,65.0
0.629,64.8
0.63,64.6
0.631,64.8
0.632,64.8
0.633,64.8
0.634,65.2
0.635,65.2
0.636,65.0
0.637,65.0
0.638,65.0
0.639,65.2
0.64,65.2
0.641,65.0
0.642,65.0
0.643,65.2
0.644,65.0
0.645,65.2
0.646,65.2
0.647,65.2
0.648,65.2
0.649,65.4
0.65,65.2
0.651,65.4
0.652,65.4
0.653,65.4
0.654,65.4
0.655,65.8
0.656,65.8
0.657,65.6
0.658,65.6
0.659,65.8
0.66,65.8
0.661,65.8
0.662,66.0
0.663,66.0
0.664,66.0
0.665,66.0
0.666,66.2
0.667,66.0
0.668,66.2
0.669,66.2
0.67,66.0
0.671,66.2
0.672,66.0
0.673,66.2
0.674,66.2
0.675,66.4
0.676,66.2
0.677,66.4
0.678,66.4
0.679,66.4
0.68,66.4
0.681,66.6
0.682,66.4
0.683,66.6
0.684,66.6
0.685,66.4
0.686,66.6
0.687,66.6
0.6880000000000001,66.8
0.6890000000000001,66.8
0.6900000000000001,67.0
0.6910000000000001,67.0
0.6920000000000001,67.2
0.6930000000000001,67.0
0.6940000000000001,67.2
0.6950000000000001,67.2
0.6960000000000001,67.2
0.6970000000000001,67.2
0.6980000000000001,67.2
0.6990000000000001,67.4
0.7000000000000001,67.4
0.7010000000000001,67.6
0.7020000000000001,67.4
0.7030000000000001,67.6
0.704,67.6
0.705,67.6
0.706,67.6
0.707,67.6
0.708,67.8
0.709,67.8
0.71,67.8
0.711,67.8
0.712,68.0
0.713,68.0
0.714,68.0
0.715,68.0
0.716,68.2
0.717,68.2
0.718,68.2
0.719,68.4
0.72,68.4
0.721,68.4
0.722,68.2
0.723,68.4
0.724,68.4
0.725,68.6
0.726,68.8
0.727,68.6
0.728,68.4
0.729,68.8
0.73,68.8
0.731,69.0
0.732,68.8
0.733,69.0
0.734,69.0
0.735,69.2
0.736,69.0
0.737,69.0
0.738,69.2
0.739,69.2
0.74,69.2
0.741,69.4
0.742,69.4
0.743,69.4
0.744,69.4
0.745,69.4
0.746,69.6
0.747,69.4
0.748,69.6
0.749,69.8
0.75,69.8
0.751,70.0
0.752,69.8
0.753,69.8
0.754,70.0
0.755,70.2
0.756,70.0
0.757,70.0
0.758,70.2
0.759,70.4
0.76,70.0
0.761,70.0
0.762,70.4
0.763,70.4
0.764,70.4
0.765,70.4
0.766,70.2
0.767,70.6
0.768,70.6
0.769,70.6
0.77,70.6
0.771,70.6
0.772,70.8
0.773,70.6
0.774,71.0
0.775,70.6
0.776,71.0
0.777,71.0
0.778,71.0
0.779,71.0
0.78,71.2
0.781,71.0
0.782,71.0
0.783,71.2
0.784,71.0
0.785,71.2
0.786,71.0
0.787,71.2
0.788,71.4
0.789,71.2
0.79,71.4
0.791,71.4
0.792,71.4
0.793,71.4
0.794,71.4
0.795,71.4
0.796,71.4
0.797,71.4
0.798,71.8
0.799,71.8
0.8,71.6
0.801,71.6
0.802,71.8
0.803,71.8
0.804,72.0
0.805,72.0
0.806,71.6
0.807,72.0
0.808,72.0
0.809,71.8
0.81,72.0
0.811,72.2
0.812,72.0
0.8130000000000001,72.0
0.8140000000000001,71.8
0.8150000000000001,71.8
0.8160000000000001,72.0
0.8170000000000001,72.2
0.8180000000000001,72.2
0.8190000000000001,72.2
0.8200000000000001,72.2
0.8210000000000001,72.2
0.8220000000000001,72.2
0.8230000000000001,72.2
0.8240000000000001,72.4
0.8250000000000001,72.0
0.8260000000000001,72.4
0.8270000000000001,72.4
0.8280000000000001,72.4
0.8290000000000001,72.4
0.8300000000000001,72.6
0.8310000000000001,72.4
0.8320000000000001,72.4
0.833,72.4
0.834,72.4
0.835,72.6
0.836,72.4
0.837,72.6
0.838,72.6
0.839,72.6
0.84,72.6
0.841,72.6
0.842,72.4
0.843,72.4
0.844,72.8
0.845,72.4
0.846,72.6
0.847,72.8
0.848,72.6
0.849,72.6
0.85,72.6
0.851,72.8
0.852,72.8
0.853,73.0
0.854,72.8
0.855,72.6
0.856,72.6
0.857,72.8
0.858,72.8
0.859,72.8
0.86,72.8
0.861,72.8
0.862,73.0
0.863,72.8
0.864,72.8
0.865,72.8
0.866,72.8
0.867,72.8
0.868,72.8
0.869,72.8
0.87,72.8
0.871,72.8
0.872,72.8
0.873,73.0
0.874,73.0
0.875,72.8
0.876,72.6
0.877,72.8
0.878,72.6
0.879,72.8
0.88,72.8
0.881,72.8
0.882,72.8
0.883,72.8
0.884,72.6
0.885,72.6
0.886,72.8
0.887,72.8
0.888,72.6
0.889,72.8
0.89,72.6
0.891,72.8
0.892,72.8
0.893,72.4
0.894,72.8
0.895,72.4
0.896,72.6
0.897,72.8
0.898,72.6
0.899,72.6
0.9,72.4
0.901,72.6
0.902,72.6
0.903,72.6
0.904,72.6
0.905,72.2
0.906,72.4
0.907,72.6
0.908,72.2
0.909,72.4
0.91,72.4
0.911,72.4
0.912,72.4
0.913,72.2
0.914,72.2
0.915,72.2
0.916,72.4
0.917,72.4
0.918,72.2
0.919,72.2
0.92,72.0
0.921,72.2
0.922,72.2
0.923,72.2
0.924,72.0
0.925,72.4
0.926,72.0
0.927,72.0
0.928,72.0
0.929,72.0
0.93,72.0
0.931,72.0
0.932,72.0
0.933,72.0
0.934,72.0
0.935,71.8
0.936,72.0
0.937,71.6
0.9380000000000001,71.6
0.9390000000000001,71.6
0.9400000000000001,71.6
0.9410000000000001,71.6
0.9420000000000001,71.6
0.9430000000000001,71.8
0.9440000000000001,71.4
0.9450000000000001,71.2
0.9460000000000001,71.4
0.9470000000000001,71.4
0.9480000000000001,71.4
0.9490000000000001,71.2
0.9500000000000001,71.4
0.9510000000000001,71.2
0.9520000000000001,71.4
0.9530000000000001,71.2
0.9540000000000001,70.8
0.9550000000000001,71.0
0.9560000000000001,71.0
0.9570000000000001,71.0
0.9580000000000001,71.0
0.9590000000000001,71.0
0.96,71.0
0.961,70.8
0.962,71.0
0.963,71.0
0.964,70.8
0.965,70.8
0.966,71.0
0.967,70.8
0.968,70.6
0.969,70.4
0.97,70.6
0.971,70.6
0.972,70.6
0.973,70.4
0.974,70.4
0.975,70.4
0.976,70.4
0.977,70.0
0.978,70.4
0.979,70.4
0.98,70.2
0.981,70.4
0.982,70.0
0.983,70.2
0.984,69.8
0.985,70.0
0.986,70.0
0.987,69.6
0.988,69.6
0.989,69.8
0.99,69.8
0.991,69.8
0.992,69.4
0.993,69.4
0.994,69.4
0.995,69.2
0.996,69.4
0.997,69.2
0.998,69.2
0.999,69.4
1.0,69.2
1.0010000000000001,69.0
1.002,69.0
1.0030000000000001,69.0
1.004,69.0
1.0050000000000001,68.8
1.006,69.0
1.0070000000000001,68.8
1.008,68.8
1.0090000000000001,68.8
1.01,68.6
1.0110000000000001,68.8
1.012,68.8
1.0130000000000001,68.6
1.014,68.4
1.0150000000000001,68.6
1.016,68.4
1.0170000000000001,68.4
1.018,68.4
1.0190000000000001,68.2
1.02,68.2
1.0210000000000001,68.2
1.022,68.0
1.0230000000000001,68.2
1.024,68.2
1.025,67.8
1.026,67.8
1.027,67.8
1.028,68.0
1.029,67.8
1.03,67.8
1.031,67.6
1.032,67.6
1.033,67.8
1.034,67.4
1.035,67.6
1.036,67.4
1.037,67.4
1.038,67.4
1.039,67.0
1.04,67.4
1.041,67.2
1.042,67.2
1.043,67.2
1.044,67.0
1.045,67.2
1.046,67.0
1.047,67.0
1.048,66.8
1.049,66.8
1.05,66.8
1.051,66.6
1.052,66.8
1.053,66.4
1.054,66.6
1.055,66.6
1.056,66.4
1.057,66.6
1.058,66.4
1.059,66.4
1.06,66.4
1.061,66.4
1.062,66.4
1.063,66.2
1.064,66.2
1.065,66.2
1.066,66.2
1.067,66.0
1.068,65.8
1.069,66.0
1.07,66.0
1.071,65.8
1.072,65.8
1.073,65.8
1.074,65.8
1.075,65.8
1.076,65.6
1.077,65.8
1.078,65.8
1.079,65.8
1.08,65.6
1.081,65.4
1.082,65.4
1.083,65.2
1.084,65.4
1.085,65.6
1.086,65.2
1.087,65.2
1.088,65.2
1.089,65.4
1.09,65.2
1.091,64.8
1.092,65.0
1.093,64.8
1.094,65.0
1.095,65.2
1.096,65.0
1.097,65.0
1.098,64.8
1.099,64.8
1.1,64.8
1.101,64.8
1.102,64.8
1.103,64.6
1.104,64.8
1.105,64.8
1.106,64.6
1.107,64.4
1.108,64.6
1.109,64.4
1.11,64.6
1.111,64.4
1.112,64.4
1.113,64.2
1.114,64.6
1.115,64.6
1.116,64.4
1.117,64.2
1.118,64.2
1.119,64.2
1.12,64.2
1.121,64.2
1.122,64.0
1.123,64.2
1.124,64.2
1.125,64.2
1.1260000000000001,64.0
1.127,64.4
1.1280000000000001,64.2
1.129,64.2
1.1300000000000001,64.2
1.131,64.2
1.1320000000000001,64.2
1.133,64.0
1.1340000000000001,64.2
1.135,64.0
1.1360000000000001,64.2
1.137,64.0
1.1380000000000001,64.2
1.139,63.8
1.1400000000000001,63.8
1.141,64.0
1.1420000000000001,64.0
1.143,63.8
1.1440000000000001,63.8
1.145,63.8
1.1460000000000001,63.8
1.147,64.2
1.1480000000000001,63.8
1.149,63.8
1.1500000000000001,64.0
1.151,63.8
1.1520000000000001,63.6
1.153,63.8
1.154,63.6
1.155,64.0
1.156,63.8
1.157,64.0
1.158,64.0
1.159,63.8
1.16,63.8
1.161,63.8
1.162,64.0
1.163,63.8
1.164,64.0
1.165,63.8
1.166,64.0
1.167,63.6
1.168,63.8
1.169,63.8
1.17,64.0
1.171,64.0
1.172,64.0
1.173,63.8
1.174,64.0
1.175,63.8
1.176,63.8
1.177,63.8
1.178,63.8
1.179,63.8
1.18,63.8
1.181,63.8
1.182,63.8
1.183,64.2
1.184,63.8
1.185,63.8
1.186,63.6
1.187,63.8
1.188,64.0
1.189,64.0
1.19,63.8
1.191,63.8
1.192,64.0
1.193,64.0
1.194,64.2
1.195,64.2
1.196,64.2
1.197,64.0
1.198,64.2
1.199,64.2
1.2,64.2
1.201,64.2
1.202,64.0
1.203,64.2
1.204,64.0
1.205,64.0
1.206,64.0
1.207,64.2
1.208,64.0
1.209,64.2
1.21,64.0
1.211,64.2
1.212,64.2
1.213,64.2
1.214,64.2
1.215,64.2
1.216,64.2
1.217,64.2
1.218,64.2
1.219,64.4
1.22,64.6
1.221,64.2
1.222,64.4
1.223,64.4
1.224,64.4
1.225,64.4
1.226,64.6
1.227,64.6
1.228,64.6
1.229,64.6
1.23,64.6
1.231,64.4
1.232,64.4
1.233,64.6
1.234,64.4
1.235,64.8
1.236,64.6
1.237,64.8
1.238,64.6
1.239,64.8
1.24,64.8
1.241,64.6
1.242,64.6
1.243,64.8
1.244,64.6
1.245,64.8
1.246,65.0
1.247,64.8
1.248,64.8
1.249,65.2
1.25,65.2
1.2510000000000001,64.8
1.252,65.0
1.2530000000000001,65.0
1.254,65.2
1.2550000000000001,65.2
1.256,65.2
1.2570000000000001,65.4
1.258,65.4
1.2590000000000001,65.2
1.26,65.4
1.2610000000000001,65.4
1.262,65.4
1.2630000000000001,65.6
1.264,65.4
1.2650000000000001,65.4
1.266,65.4
1.2670000000000001,65.6
1.268,65.4
1.2690000000000001,65.8
1.27,65.6
1.2710000000000001,65.8
1.272,65.8
1.2730000000000001,65.8
1.274,65.8
1.2750000000000001,66.0
1.276,66.0
1.2770000000000001,66.0
1.278,66.0
1.2790000000000001,66.0
1.28,66.0
1.281,65.8
1.282,66.0
1.283,66.2
1.284,66.2
1.285,66.2
1.286,66.2
1.287,66.4
1.288,66.4
1.289,66.2
1.29,66.2
1.291,66.2
1.292,66.4
1.293,66.6
1.294,66.6
