####### Preamble ##########################
#	byt_nr=1
#	bit_nr=8
#	encdg=BIN
#	bn_fmt=RI
#	byt_or=MSB
#	nr_pt=10000
#	wfid="Ch1, DC coupling, 5.0E0 V/div, 2.0E-1 s/div, 10000 points, Sample mode"
#	pt_fmt=Y
#	xincr=2.0E-4
#	pt_off=0
#	xzero=-1.0E0
#	xunit="s"
#	ymult=2.0E-1
#	yzero=0.0E0
#	yoff=5.7E1
#	yunit="V"
#######  Cursor ##########################
#VBA;IND;"s";-7.36E-1;-8.04E-1;0.0E0;6.8E-2;CURSOR1;4.5E0;4.5E0;-1.26E1;-2.1E1;8.4E0;CURSOR1;"V";CURSOR1;CURSOR1X;-3.24E1;-2.08E1;9.6E0;4.32E1;RECT;0.0E0;0.0E0;0.0E0;0.0E0;0.0E0;0.0E0;9.9E37;9.9E37;9.9E37;9.9E37;9.9E37;9.9E37;9.9E37;9.9E37;9.9E37;9.9E37;9.9E37;9.9E37
#######  Data ##########################
#RIB;REF1;CH1;1;10000;1
# Delete the above lines to open in excel ######

Time [s],volts [V]
0.0,64.0
0.0002,67.6
0.0004,66.8
0.0006000000000000001,66.6
0.0008,66.6
0.001,66.6
0.0012000000000000001,66.6
0.0014,72.8
0.0016,73.0
0.0018000000000000002,73.0
0.002,73.0
0.0022,72.8
0.0024000000000000002,72.6
0.0026000000000000003,72.6
0.0028,73.0
0.003,72.8
0.0032,72.8
0.0034000000000000002,72.8
0.0036000000000000003,72.8
0.0038,72.8
0.004,73.0
0.004200000000000001,72.8
0.0044,73.0
0.0046,72.8
0.0048000000000000004,72.8
0.005,72.8
0.005200000000000001,72.8
0.0054,72.8
0.0056,73.0
0.0058000000000000005,72.8
0.006,72.8
0.006200000000000001,73.0
0.0064,72.8
0.0066,72.8
0.0068000000000000005,72.8
0.007,72.6
0.007200000000000001,72.8
0.0074,73.0
0.0076,72.8
0.0078000000000000005,72.8
0.008,73.0
0.0082,73.0
0.008400000000000001,72.8
0.0086,72.8
0.0088,72.8
0.009000000000000001,73.0
0.0092,72.8
0.0094,72.8
0.009600000000000001,72.8
0.0098,73.0
0.01,72.6
0.0102,73.0
0.010400000000000001,72.6
0.0106,72.8
0.0108,72.8
0.011000000000000001,72.8
0.0112,72.8
0.0114,72.8
0.011600000000000001,73.0
0.0118,72.6
0.012,73.0
0.0122,72.8
0.012400000000000001,72.8
0.0126,72.8
0.0128,73.0
0.013000000000000001,72.8
0.0132,72.8
0.0134,72.8
0.013600000000000001,72.8
0.013800000000000002,72.8
0.014,73.0
0.0142,73.0
0.014400000000000001,72.8
0.0146,73.2
0.0148,73.0
0.015000000000000001,72.8
0.0152,72.6
0.0154,73.0
0.015600000000000001,72.8
0.0158,73.0
0.016,72.8
0.0162,72.8
0.0164,72.8
0.0166,72.6
0.016800000000000002,72.8
0.017,72.6
0.0172,73.0
0.017400000000000002,72.8
0.0176,72.8
0.0178,72.8
0.018000000000000002,72.8
0.0182,72.8
0.0184,73.0
0.018600000000000002,72.8
0.0188,73.0
0.019,72.8
0.019200000000000002,73.0
0.0194,72.8
0.0196,72.8
0.0198,72.6
0.02,72.8
0.020200000000000003,73.0
0.0204,73.0
0.0206,72.8
0.020800000000000003,72.8
0.021,72.8
0.0212,72.8
0.021400000000000002,73.0
0.0216,73.0
0.0218,73.0
0.022000000000000002,72.8
0.0222,72.8
0.0224,73.0
0.022600000000000002,73.0
0.0228,73.0
0.023,72.8
0.023200000000000002,72.8
0.0234,72.8
0.0236,73.0
0.0238,73.0
0.024,73.0
0.024200000000000003,73.0
0.0244,72.8
0.0246,72.8
0.024800000000000003,73.0
0.025,72.8
0.0252,73.0
0.025400000000000002,73.0
0.0256,73.0
0.0258,72.8
0.026000000000000002,73.0
0.0262,72.8
0.0264,72.8
0.026600000000000002,73.0
0.0268,72.8
0.027,72.8
0.027200000000000002,73.0
0.0274,72.6
0.027600000000000003,73.0
0.027800000000000002,72.8
0.028,73.0
0.028200000000000003,72.8
0.0284,72.6
0.0286,73.0
0.028800000000000003,73.0
0.029,72.8
0.0292,72.8
0.029400000000000003,72.8
0.0296,73.0
0.0298,72.6
0.030000000000000002,72.8
0.0302,72.8
0.0304,72.6
0.030600000000000002,72.8
0.0308,72.8
0.031,72.8
0.031200000000000002,73.0
0.031400000000000004,73.0
0.0316,72.6
0.0318,72.8
0.032,72.8
0.0322,73.0
0.0324,72.8
0.032600000000000004,72.8
0.0328,73.0
0.033,73.0
0.0332,72.8
0.0334,72.8
0.033600000000000005,72.6
0.033800000000000004,73.0
0.034,72.8
0.0342,72.8
0.0344,72.8
0.0346,73.0
0.034800000000000005,72.8
0.035,72.6
0.0352,73.0
0.0354,73.0
0.0356,72.8
0.0358,72.6
0.036000000000000004,72.8
0.0362,72.8
0.0364,72.6
0.0366,73.0
0.0368,72.6
0.037000000000000005,73.0
0.037200000000000004,72.6
0.0374,72.6
0.0376,73.0
0.0378,72.8
0.038,72.8
0.038200000000000005,72.8
0.038400000000000004,72.8
0.0386,72.8
0.0388,73.0
0.039,72.8
0.0392,72.8
0.039400000000000004,72.8
0.0396,73.0
0.0398,73.0
0.04,73.0
0.0402,73.0
0.040400000000000005,72.8
0.040600000000000004,73.0
0.0408,72.8
0.041,72.8
0.0412,72.8
0.0414,72.8
0.041600000000000005,73.0
0.041800000000000004,73.0
0.042,72.8
0.0422,72.8
0.0424,73.0
0.0426,73.0
0.042800000000000005,72.8
0.043000000000000003,73.0
0.0432,72.8
0.0434,72.8
0.0436,73.0
0.0438,72.8
0.044000000000000004,72.8
0.0442,72.8
0.0444,73.0
0.0446,73.0
0.0448,73.0
0.045000000000000005,72.8
0.045200000000000004,72.8
0.0454,72.8
0.0456,72.6
0.0458,73.0
0.046,72.6
0.046200000000000005,72.8
0.046400000000000004,72.8
0.0466,72.6
0.0468,72.8
0.047,72.8
0.0472,72.8
0.047400000000000005,72.8
0.0476,72.8
0.0478,72.8
0.048,73.0
0.0482,73.0
0.048400000000000006,72.8
0.048600000000000004,73.0
0.0488,73.0
0.049,72.8
0.0492,72.8
0.0494,72.8
0.049600000000000005,72.6
0.049800000000000004,72.8
0.05,72.6
0.0502,72.8
0.0504,72.8
0.0506,72.8
0.050800000000000005,72.8
0.051000000000000004,72.8
0.0512,73.0
0.0514,72.6
0.0516,73.0
0.051800000000000006,73.0
0.052000000000000005,73.0
0.0522,72.8
0.0524,72.8
0.0526,72.8
0.0528,72.8
0.053000000000000005,72.8
0.053200000000000004,72.8
0.0534,72.8
0.0536,72.8
0.0538,72.8
0.054,72.8
0.054200000000000005,72.8
0.054400000000000004,73.0
0.0546,72.8
0.0548,72.8
0.055,73.0
0.055200000000000006,73.0
0.055400000000000005,72.8
0.055600000000000004,72.8
0.0558,72.6
0.056,73.0
0.0562,72.8
0.056400000000000006,72.8
0.056600000000000004,72.8
0.0568,72.8
0.057,72.6
0.0572,73.0
0.0574,72.8
0.057600000000000005,72.6
0.057800000000000004,72.8
0.058,72.8
0.0582,72.8
0.0584,73.0
0.058600000000000006,72.8
0.058800000000000005,73.0
0.059000000000000004,72.8
0.0592,73.0
0.0594,72.8
0.0596,73.0
0.059800000000000006,73.0
0.060000000000000005,72.8
0.060200000000000004,73.0
0.0604,72.8
0.0606,72.8
0.0608,72.8
0.061000000000000006,72.8
0.061200000000000004,73.0
0.0614,72.8
0.0616,72.8
0.0618,72.8
0.062,73.0
0.062200000000000005,73.0
0.062400000000000004,72.8
0.0626,72.8
0.06280000000000001,72.8
0.063,72.6
0.0632,72.8
0.0634,73.0
0.0636,72.8
0.06380000000000001,73.0
0.064,72.8
0.06420000000000001,72.8
0.0644,72.8
0.0646,73.0
0.0648,72.8
0.065,72.8
0.06520000000000001,73.0
0.0654,72.8
0.0656,73.0
0.0658,72.6
0.066,72.8
0.06620000000000001,73.0
0.0664,72.8
0.0666,72.6
0.0668,73.0
0.067,72.8
0.06720000000000001,72.8
0.0674,72.8
0.06760000000000001,72.8
0.0678,73.2
0.068,73.0
0.0682,73.0
0.0684,73.0
0.06860000000000001,73.0
0.0688,72.8
0.069,72.6
0.0692,73.0
0.0694,72.8
0.06960000000000001,72.6
0.0698,72.6
0.07,73.0
0.0702,72.8
0.0704,72.8
0.07060000000000001,72.8
0.0708,73.0
0.07100000000000001,72.8
0.0712,72.8
0.0714,72.8
0.0716,72.8
0.0718,73.0
0.07200000000000001,73.0
0.0722,72.8
0.0724,72.8
0.0726,73.0
0.0728,72.8
0.07300000000000001,72.6
0.0732,72.8
0.0734,72.8
0.0736,72.8
0.0738,72.8
0.07400000000000001,72.8
0.0742,72.8
0.07440000000000001,72.6
0.0746,72.6
0.0748,73.0
0.075,73.0
0.0752,72.8
0.07540000000000001,72.8
0.0756,72.8
0.0758,72.8
0.076,72.6
0.0762,73.0
0.07640000000000001,72.8
0.0766,73.0
0.07680000000000001,72.8
0.077,72.8
0.0772,72.8
0.07740000000000001,72.6
0.0776,73.0
0.07780000000000001,73.0
0.078,72.8
0.0782,73.0
0.0784,72.8
0.0786,73.0
0.07880000000000001,72.8
0.079,73.0
0.0792,72.8
0.0794,73.0
0.0796,73.0
0.07980000000000001,73.0
0.08,72.8
0.08020000000000001,73.0
0.0804,72.8
0.0806,72.8
0.08080000000000001,72.8
0.081,72.6
0.08120000000000001,72.8
0.0814,73.0
0.0816,72.8
0.0818,72.8
0.082,72.8
0.08220000000000001,72.8
0.0824,72.8
0.0826,72.8
0.0828,72.8
0.083,72.8
0.08320000000000001,72.8
0.0834,73.0
0.08360000000000001,73.0
0.0838,72.8
0.084,73.0
0.08420000000000001,72.8
0.0844,72.8
0.08460000000000001,72.6
0.0848,72.8
0.085,73.0
0.0852,72.6
0.0854,73.0
0.08560000000000001,72.8
0.0858,72.8
0.08600000000000001,72.8
0.0862,72.8
0.0864,72.8
0.08660000000000001,73.0
0.0868,72.8
0.08700000000000001,73.0
0.0872,73.0
0.0874,73.0
0.0876,72.8
0.0878,72.8
0.08800000000000001,73.0
0.0882,72.8
0.0884,72.8
0.0886,72.8
0.0888,72.8
0.08900000000000001,72.8
0.0892,72.6
0.08940000000000001,72.8
0.0896,72.8
0.0898,72.8
0.09000000000000001,72.8
0.0902,72.8
0.09040000000000001,72.8
0.0906,73.0
0.0908,73.0
0.091,72.6
0.0912,72.8
0.09140000000000001,72.8
0.0916,72.8
0.0918,72.8
0.092,73.0
0.0922,72.8
0.09240000000000001,72.8
0.0926,72.8
0.09280000000000001,72.8
0.093,72.8
0.0932,73.0
0.09340000000000001,73.0
0.0936,72.8
0.09380000000000001,73.0
0.094,73.0
0.0942,72.6
0.0944,72.8
0.0946,72.8
0.09480000000000001,73.0
0.095,72.8
0.0952,72.6
0.0954,72.8
0.0956,72.8
0.09580000000000001,72.8
0.096,73.0
0.09620000000000001,72.6
0.0964,72.8
0.0966,72.8
0.09680000000000001,72.8
0.097,72.8
0.09720000000000001,72.8
0.0974,73.0
0.0976,72.8
0.0978,72.8
0.098,72.8
0.09820000000000001,73.0
0.0984,73.0
0.09860000000000001,73.0
0.0988,72.8
0.099,72.6
0.09920000000000001,73.0
0.0994,72.8
0.09960000000000001,73.0
0.0998,72.8
0.1,73.0
0.10020000000000001,72.8
0.1004,72.8
0.10060000000000001,73.0
0.1008,72.8
0.101,73.0
0.1012,72.8
0.1014,73.0
0.10160000000000001,73.0
0.1018,72.8
0.10200000000000001,72.8
0.1022,73.0
0.1024,73.0
0.10260000000000001,72.8
0.1028,72.8
0.10300000000000001,72.8
0.1032,72.8
0.1034,72.8
0.10360000000000001,72.8
0.1038,72.8
0.10400000000000001,73.0
0.1042,73.0
0.1044,72.8
0.1046,73.0
0.1048,73.0
0.10500000000000001,72.8
0.1052,72.8
0.10540000000000001,72.6
0.1056,72.8
0.1058,72.8
0.10600000000000001,72.8
0.1062,72.8
0.10640000000000001,72.8
0.1066,72.6
0.1068,73.0
0.10700000000000001,72.8
0.1072,73.0
0.10740000000000001,72.8
0.1076,72.8
0.1078,72.8
0.108,72.8
0.1082,73.0
0.10840000000000001,72.8
0.1086,72.6
0.10880000000000001,72.8
0.109,72.8
0.1092,72.8
0.10940000000000001,72.6
0.1096,72.6
0.10980000000000001,73.0
0.11,73.0
0.1102,72.8
0.11040000000000001,72.8
0.1106,73.0
0.11080000000000001,72.8
0.111,72.8
0.11120000000000001,72.8
0.1114,73.0
0.1116,72.8
0.11180000000000001,72.8
0.112,72.8
0.11220000000000001,73.0
0.1124,72.8
0.1126,72.8
0.11280000000000001,73.0
0.113,72.8
0.11320000000000001,72.8
0.1134,72.8
0.1136,73.0
0.11380000000000001,73.0
0.114,72.8
0.11420000000000001,72.8
0.1144,73.0
0.11460000000000001,73.0
0.1148,73.0
0.115,72.8
0.11520000000000001,72.6
0.1154,73.0
0.11560000000000001,72.8
0.1158,73.0
0.116,72.8
0.11620000000000001,72.6
0.1164,72.6
0.11660000000000001,72.8
0.1168,72.8
0.117,72.8
0.11720000000000001,72.8
0.1174,72.8
0.11760000000000001,72.8
0.1178,73.0
0.11800000000000001,73.0
0.1182,73.0
0.1184,72.8
0.11860000000000001,72.8
0.1188,73.0
0.11900000000000001,73.0
0.1192,73.0
0.1194,72.8
0.11960000000000001,72.8
0.1198,73.0
0.12000000000000001,73.0
0.1202,72.8
0.12040000000000001,73.0
0.1206,72.8
0.1208,72.8
0.12100000000000001,72.8
0.1212,72.8
0.12140000000000001,73.0
0.1216,73.0
0.1218,72.8
0.12200000000000001,72.8
0.1222,72.8
0.12240000000000001,72.6
0.1226,72.6
0.1228,72.8
0.12300000000000001,72.8
0.1232,73.0
0.12340000000000001,72.8
0.1236,73.0
0.12380000000000001,73.0
0.124,73.0
0.1242,72.8
0.12440000000000001,73.0
0.1246,72.8
0.12480000000000001,72.8
0.125,72.8
0.1252,72.6
0.1254,72.6
0.12560000000000002,73.0
0.1258,72.6
0.126,72.8
0.1262,72.8
0.1264,72.6
0.12660000000000002,72.8
0.1268,72.8
0.127,73.0
0.1272,72.6
0.1274,73.0
0.12760000000000002,73.0
0.1278,73.0
0.128,72.8
0.1282,72.8
0.12840000000000001,72.6
0.12860000000000002,72.8
0.1288,72.8
0.129,72.8
0.1292,72.6
0.12940000000000002,73.0
0.1296,72.8
0.1298,73.0
0.13,72.8
0.1302,73.0
0.13040000000000002,72.8
0.1306,72.6
0.1308,72.8
0.131,73.0
0.1312,72.6
0.13140000000000002,72.6
0.1316,72.8
0.1318,73.0
0.132,72.8
0.1322,73.0
0.13240000000000002,72.8
0.1326,72.8
0.1328,73.0
0.133,72.8
0.1332,73.0
0.13340000000000002,73.0
0.1336,72.8
0.1338,72.8
0.134,72.8
0.1342,72.8
0.13440000000000002,73.0
0.1346,72.8
0.1348,72.8
0.135,72.6
0.13520000000000001,72.8
0.13540000000000002,72.8
0.1356,72.8
0.1358,72.6
0.136,72.8
0.13620000000000002,72.8
0.1364,72.8
0.1366,72.8
0.1368,72.8
0.137,72.8
0.13720000000000002,72.8
0.1374,72.8
0.1376,73.0
0.1378,72.8
0.138,73.2
0.13820000000000002,72.8
0.1384,73.0
0.1386,72.8
0.1388,73.0
0.139,73.0
0.13920000000000002,73.0
0.1394,72.8
0.1396,73.0
0.1398,72.6
0.14,73.0
0.14020000000000002,73.0
0.1404,73.0
0.1406,72.8
0.1408,72.8
0.14100000000000001,72.8
0.14120000000000002,72.8
0.1414,72.8
0.1416,72.8
0.1418,73.0
0.14200000000000002,73.0
0.1422,72.8
0.1424,72.8
0.1426,73.0
0.1428,73.0
0.14300000000000002,72.8
0.1432,72.8
0.1434,73.0
0.1436,72.8
0.1438,72.8
0.14400000000000002,73.0
0.1442,73.0
0.1444,72.8
0.1446,72.8
0.1448,72.8
0.14500000000000002,72.8
0.1452,73.0
0.1454,72.8
0.1456,72.6
0.1458,72.8
0.14600000000000002,72.8
0.1462,72.8
0.1464,72.8
0.1466,72.8
0.1468,72.8
0.14700000000000002,72.8
0.1472,72.8
0.1474,72.8
0.1476,72.8
0.14780000000000001,72.8
0.14800000000000002,72.8
0.1482,72.8
0.1484,73.0
0.1486,72.8
0.14880000000000002,72.8
0.149,72.8
0.1492,72.8
0.1494,73.0
0.1496,72.8
0.14980000000000002,72.8
0.15,73.0
0.1502,73.0
0.1504,72.8
0.1506,72.8
0.15080000000000002,73.0
0.151,72.8
0.1512,72.8
0.1514,72.8
0.1516,72.8
0.15180000000000002,73.0
0.152,73.0
0.1522,72.8
0.1524,72.8
0.1526,72.8
0.15280000000000002,73.0
0.153,73.0
0.1532,72.8
0.1534,72.8
0.15360000000000001,72.8
0.15380000000000002,72.8
0.154,73.0
0.1542,73.0
0.1544,72.6
0.15460000000000002,72.8
0.15480000000000002,72.6
0.155,72.8
0.1552,72.6
0.1554,72.8
0.15560000000000002,72.8
0.1558,72.8
0.156,72.6
0.1562,73.0
0.1564,73.0
0.15660000000000002,72.8
0.1568,73.0
0.157,72.8
0.1572,72.8
0.1574,72.8
0.15760000000000002,73.0
0.1578,72.8
0.158,72.8
0.1582,73.0
0.1584,72.8
0.15860000000000002,73.0
0.1588,72.8
0.159,72.8
0.1592,72.8
0.15940000000000001,72.8
0.15960000000000002,73.0
0.1598,72.8
0.16,72.8
0.1602,72.8
0.16040000000000001,73.0
0.16060000000000002,72.8
0.1608,73.0
0.161,73.0
0.1612,73.0
0.16140000000000002,73.0
0.16160000000000002,72.8
0.1618,73.0
0.162,72.8
0.1622,73.0
0.16240000000000002,73.2
0.1626,72.8
0.1628,72.8
0.163,72.8
0.1632,73.0
0.16340000000000002,73.0
0.1636,73.2
0.1638,72.8
0.164,72.8
0.1642,72.8
0.16440000000000002,72.8
0.1646,72.8
0.1648,72.8
0.165,72.8
0.1652,72.8
0.16540000000000002,72.6
0.1656,72.6
0.1658,72.8
0.166,72.6
0.16620000000000001,72.8
0.16640000000000002,72.8
0.1666,73.0
0.1668,73.0
0.167,73.0
0.16720000000000002,72.8
0.16740000000000002,73.0
0.1676,73.0
0.1678,72.8
0.168,72.8
0.16820000000000002,72.8
0.16840000000000002,72.6
0.1686,72.8
0.1688,72.8
0.169,72.8
0.16920000000000002,73.0
0.1694,72.6
0.1696,73.0
0.1698,73.0
0.17,72.8
0.17020000000000002,72.8
0.1704,73.0
0.1706,73.0
0.1708,72.8
0.171,72.8
0.17120000000000002,73.0
0.1714,73.0
0.1716,73.0
0.1718,73.0
0.17200000000000001,72.8
0.17220000000000002,72.8
0.1724,72.8
0.1726,72.8
0.1728,73.0
0.17300000000000001,72.8
0.17320000000000002,73.0
0.1734,72.8
0.1736,72.6
0.1738,72.8
0.17400000000000002,73.0
0.17420000000000002,72.8
0.1744,72.6
0.1746,72.8
0.1748,73.0
0.17500000000000002,72.8
0.1752,72.8
0.1754,72.6
0.1756,72.8
0.1758,72.8
0.17600000000000002,72.8
0.1762,72.8
0.1764,73.0
0.1766,72.8
0.1768,72.8
0.17700000000000002,73.0
0.1772,72.8
0.1774,73.0
0.1776,72.8
0.1778,72.8
0.17800000000000002,72.8
0.1782,72.8
0.1784,73.0
0.1786,73.0
0.17880000000000001,72.8
0.17900000000000002,72.8
0.1792,73.0
0.1794,72.8
0.1796,72.8
0.17980000000000002,73.0
0.18000000000000002,72.8
0.1802,72.8
0.1804,72.6
0.1806,72.8
0.18080000000000002,73.0
0.18100000000000002,73.0
0.1812,73.0
0.1814,72.8
0.1816,72.8
0.18180000000000002,72.6
0.182,72.8
0.1822,72.8
0.1824,72.8
0.1826,73.0
0.18280000000000002,72.8
0.183,72.8
0.1832,73.0
0.1834,73.0
0.1836,73.0
0.18380000000000002,73.2
0.184,73.0
0.1842,72.8
0.1844,72.8
0.18460000000000001,72.8
0.18480000000000002,72.6
0.185,72.8
0.1852,72.6
0.1854,72.6
0.18560000000000001,72.8
0.18580000000000002,72.8
0.186,73.0
0.1862,72.8
0.1864,72.8
0.18660000000000002,72.8
0.18680000000000002,72.8
0.187,73.0
0.1872,73.0
0.1874,72.6
0.18760000000000002,73.0
0.18780000000000002,72.8
0.188,73.0
0.1882,72.6
0.1884,73.0
0.18860000000000002,72.8
0.1888,72.8
0.189,72.8
0.1892,72.8
0.1894,72.8
0.18960000000000002,72.8
0.1898,73.0
0.19,72.8
0.1902,72.8
0.1904,73.0
0.19060000000000002,73.0
0.1908,73.0
0.191,72.8
0.1912,73.0
0.19140000000000001,73.0
0.19160000000000002,72.8
0.1918,73.0
0.192,72.8
0.1922,73.0
0.19240000000000002,73.0
0.19260000000000002,73.0
0.1928,72.8
0.193,73.0
0.1932,72.6
0.19340000000000002,72.8
0.19360000000000002,73.0
0.1938,72.8
0.194,72.8
0.1942,72.8
0.19440000000000002,72.8
0.19460000000000002,73.0
0.1948,72.8
0.195,73.0
0.1952,72.8
0.19540000000000002,72.6
0.1956,72.8
0.1958,72.8
0.196,72.8
0.1962,73.0
0.19640000000000002,73.0
0.1966,73.0
0.1968,72.8
0.197,72.8
0.19720000000000001,73.0
0.19740000000000002,73.0
0.1976,72.8
0.1978,73.0
0.198,73.0
0.19820000000000002,73.0
0.19840000000000002,73.0
0.1986,72.8
0.1988,72.6
0.199,73.0
0.19920000000000002,72.8
0.19940000000000002,72.8
0.1996,73.0
0.1998,73.0
0.2,72.8
0.20020000000000002,72.8
0.20040000000000002,72.8
0.2006,73.0
0.2008,72.8
0.201,72.8
0.20120000000000002,73.0
0.20140000000000002,72.8
0.2016,72.6
0.2018,72.8
0.202,73.0
0.20220000000000002,72.8
0.2024,73.0
0.2026,72.8
0.2028,72.8
0.203,72.8
0.20320000000000002,72.8
0.2034,72.8
0.2036,72.8
0.2038,73.0
0.20400000000000001,72.8
0.20420000000000002,72.8
0.2044,72.8
0.2046,73.0
0.2048,73.0
0.20500000000000002,72.8
0.20520000000000002,72.8
0.2054,72.8
0.2056,72.8
0.2058,72.8
0.20600000000000002,73.0
0.20620000000000002,72.8
0.2064,72.8
0.2066,72.8
0.2068,72.8
0.20700000000000002,73.0
0.20720000000000002,73.0
0.2074,72.8
0.2076,72.8
0.2078,73.0
0.20800000000000002,72.8
0.2082,72.8
0.2084,72.8
0.2086,72.8
0.2088,73.0
0.20900000000000002,72.8
0.2092,72.8
0.2094,72.8
0.2096,72.8
0.20980000000000001,72.8
0.21000000000000002,73.0
0.2102,72.8
0.2104,72.8
0.2106,72.8
0.21080000000000002,73.0
0.21100000000000002,72.8
0.2112,72.8
0.2114,72.8
0.2116,73.0
0.21180000000000002,72.8
0.21200000000000002,73.0
0.2122,72.8
0.2124,72.8
