####### Preamble ##########################
#	byt_nr=1
#	bit_nr=8
#	encdg=BIN
#	bn_fmt=RI
#	byt_or=MSB
#	nr_pt=10000
#	wfid="Ch1, DC coupling, 5.0E0 V/div, 2.0E-1 s/div, 10000 points, Sample mode"
#	pt_fmt=Y
#	xincr=2.0E-4
#	pt_off=0
#	xzero=-1.0E0
#	xunit="s"
#	ymult=2.0E-1
#	yzero=0.0E0
#	yoff=5.7E1
#	yunit="V"
#######  Cursor ##########################
#VBA;IND;"s";-7.36E-1;-8.04E-1;1.0E-1;6.8E-2;CURSOR1;-4.8E0;-4.9E0;-1.26E1;-2.1E1;8.4E0;CURSOR1;"V";CURSOR1;CURSOR1X;-3.24E1;-2.08E1;9.6E0;4.32E1;RECT;0.0E0;0.0E0;0.0E0;0.0E0;0.0E0;0.0E0;9.9E37;9.9E37;9.9E37;9.9E37;9.9E37;9.9E37;9.9E37;9.9E37;9.9E37;9.9E37;9.9E37;9.9E37
#######  Data ##########################
#RIB;REF1;CH1;1;10000;1
# Delete the above lines to open in excel ######

Time [s],volts [V]
0.0,64.0
0.0002,67.6
0.0004,66.8
0.0006000000000000001,66.6
0.0008,66.6
0.001,66.6
0.0012000000000000001,66.6
0.0014,63.4
0.0016,63.6
0.0018000000000000002,63.6
0.002,63.4
0.0022,63.4
0.0024000000000000002,63.4
0.0026000000000000003,63.4
0.0028,63.4
0.003,63.4
0.0032,63.6
0.0034000000000000002,63.4
0.0036000000000000003,63.4
0.0038,63.6
0.004,63.2
0.004200000000000001,63.4
0.0044,63.6
0.0046,63.4
0.0048000000000000004,63.4
0.005,63.6
0.005200000000000001,63.4
0.0054,63.6
0.0056,63.6
0.0058000000000000005,63.6
0.006,63.4
0.006200000000000001,63.6
0.0064,63.6
0.0066,63.6
0.0068000000000000005,63.6
0.007,63.6
0.007200000000000001,63.4
0.0074,63.6
0.0076,63.4
0.0078000000000000005,63.6
0.008,63.4
0.0082,63.4
0.008400000000000001,63.4
0.0086,63.6
0.0088,63.4
0.009000000000000001,63.4
0.0092,63.6
0.0094,63.4
0.009600000000000001,63.4
0.0098,63.8
0.01,63.4
0.0102,63.6
0.010400000000000001,63.4
0.0106,63.6
0.0108,63.4
0.011000000000000001,63.4
0.0112,63.6
0.0114,63.6
0.011600000000000001,63.6
0.0118,63.6
0.012,63.6
0.0122,63.8
0.012400000000000001,63.6
0.0126,63.2
0.0128,63.4
0.013000000000000001,63.4
0.0132,63.6
0.0134,63.4
0.013600000000000001,63.4
0.013800000000000002,63.4
0.014,63.6
0.0142,63.4
0.014400000000000001,63.4
0.0146,63.4
0.0148,63.4
0.015000000000000001,63.4
0.0152,63.4
0.0154,63.4
0.015600000000000001,63.6
0.0158,63.6
0.016,63.6
0.0162,63.4
0.0164,63.4
0.0166,63.4
0.016800000000000002,63.6
0.017,63.4
0.0172,63.4
0.017400000000000002,63.4
0.0176,63.6
0.0178,63.4
0.018000000000000002,63.6
0.0182,63.4
0.0184,63.6
0.018600000000000002,63.6
0.0188,63.4
0.019,63.6
0.019200000000000002,63.4
0.0194,63.6
0.0196,63.4
0.0198,63.4
0.02,63.4
0.020200000000000003,63.6
0.0204,63.6
0.0206,63.6
0.020800000000000003,63.6
0.021,63.4
0.0212,63.4
0.021400000000000002,63.4
0.0216,63.6
0.0218,63.6
0.022000000000000002,63.6
0.0222,63.4
0.0224,63.4
0.022600000000000002,63.6
0.0228,63.6
0.023,63.6
0.023200000000000002,63.4
0.0234,63.4
0.0236,63.4
0.0238,63.4
0.024,63.4
0.024200000000000003,63.4
0.0244,63.4
0.0246,63.4
0.024800000000000003,63.4
0.025,63.4
0.0252,63.6
0.025400000000000002,63.6
0.0256,63.4
0.0258,63.4
0.026000000000000002,63.4
0.0262,63.6
0.0264,63.6
0.026600000000000002,63.6
0.0268,63.4
0.027,63.4
0.027200000000000002,63.6
0.0274,63.4
0.027600000000000003,63.4
0.027800000000000002,63.4
0.028,63.4
0.028200000000000003,63.6
0.0284,63.4
0.0286,63.4
0.028800000000000003,63.6
0.029,63.6
0.0292,63.4
0.029400000000000003,63.6
0.0296,63.6
0.0298,63.4
0.030000000000000002,63.6
0.0302,63.4
0.0304,63.4
0.030600000000000002,63.6
0.0308,63.6
0.031,63.4
0.031200000000000002,63.4
0.031400000000000004,63.4
0.0316,63.6
0.0318,63.6
0.032,63.4
0.0322,63.6
0.0324,63.4
0.032600000000000004,63.4
0.0328,63.4
0.033,63.4
0.0332,63.6
0.0334,63.6
0.033600000000000005,63.2
0.033800000000000004,63.6
0.034,63.2
0.0342,63.4
0.0344,63.4
0.0346,63.4
0.034800000000000005,63.4
0.035,63.6
0.0352,63.6
0.0354,63.4
0.0356,63.6
0.0358,63.6
0.036000000000000004,63.6
0.0362,63.6
0.0364,63.6
0.0366,63.6
0.0368,63.4
0.037000000000000005,63.6
0.037200000000000004,63.4
0.0374,63.6
0.0376,63.6
0.0378,63.6
0.038,63.4
0.038200000000000005,63.6
0.038400000000000004,63.6
0.0386,63.2
0.0388,63.6
0.039,63.6
0.0392,63.6
0.039400000000000004,63.2
0.0396,63.4
0.0398,63.4
0.04,63.4
0.0402,63.6
0.040400000000000005,63.6
0.040600000000000004,63.2
0.0408,63.4
0.041,63.4
0.0412,63.6
0.0414,63.6
0.041600000000000005,63.6
0.041800000000000004,63.4
0.042,63.6
0.0422,63.6
0.0424,63.6
0.0426,63.4
0.042800000000000005,63.6
0.043000000000000003,63.6
0.0432,63.4
0.0434,63.4
0.0436,63.2
0.0438,63.6
0.044000000000000004,63.6
0.0442,63.4
0.0444,63.2
0.0446,63.6
0.0448,63.4
0.045000000000000005,63.6
0.045200000000000004,63.6
0.0454,63.6
0.0456,63.4
0.0458,63.4
0.046,63.4
0.046200000000000005,63.4
0.046400000000000004,63.6
0.0466,63.4
0.0468,63.4
0.047,63.4
0.0472,63.4
0.047400000000000005,63.6
0.0476,63.4
0.0478,63.4
0.048,63.2
0.0482,63.6
0.048400000000000006,63.4
0.048600000000000004,63.6
0.0488,63.6
0.049,63.4
0.0492,63.6
0.0494,63.6
0.049600000000000005,63.6
0.049800000000000004,63.6
0.05,63.4
0.0502,63.4
0.0504,63.6
0.0506,63.6
0.050800000000000005,63.4
0.051000000000000004,63.4
0.0512,63.6
0.0514,63.4
0.0516,63.6
0.051800000000000006,63.6
0.052000000000000005,63.6
0.0522,63.4
0.0524,63.4
0.0526,63.4
0.0528,63.6
0.053000000000000005,63.6
0.053200000000000004,63.4
0.0534,63.2
0.0536,63.6
0.0538,63.6
0.054,63.6
0.054200000000000005,63.4
0.054400000000000004,63.4
0.0546,63.4
0.0548,63.4
0.055,63.6
0.055200000000000006,63.4
0.055400000000000005,63.6
0.055600000000000004,63.4
0.0558,63.4
0.056,63.6
0.0562,63.6
0.056400000000000006,63.4
0.056600000000000004,63.4
0.0568,63.6
0.057,63.4
0.0572,63.6
0.0574,63.6
0.057600000000000005,63.4
0.057800000000000004,63.4
0.058,63.6
0.0582,63.6
0.0584,63.4
0.058600000000000006,63.6
0.058800000000000005,63.6
0.059000000000000004,63.6
0.0592,63.4
0.0594,63.4
0.0596,63.6
0.059800000000000006,63.6
0.060000000000000005,63.6
0.060200000000000004,63.6
0.0604,63.4
0.0606,63.4
0.0608,63.6
0.061000000000000006,63.6
0.061200000000000004,63.6
0.0614,63.6
0.0616,63.6
0.0618,63.6
0.062,63.4
0.062200000000000005,63.6
0.062400000000000004,63.6
0.0626,63.6
0.06280000000000001,63.6
0.063,63.4
0.0632,63.4
0.0634,63.4
0.0636,63.4
0.06380000000000001,63.4
0.064,63.4
0.06420000000000001,63.4
0.0644,63.6
0.0646,63.4
0.0648,63.6
0.065,63.6
0.06520000000000001,63.6
0.0654,63.6
0.0656,63.6
0.0658,63.6
0.066,63.6
0.06620000000000001,63.6
0.0664,63.4
0.0666,63.2
0.0668,63.6
0.067,63.2
0.06720000000000001,63.4
0.0674,63.4
0.06760000000000001,63.4
0.0678,63.6
0.068,63.4
0.0682,63.4
0.0684,63.6
0.06860000000000001,63.6
0.0688,63.4
0.069,63.4
0.0692,63.4
0.0694,63.6
0.06960000000000001,63.6
0.0698,63.4
0.07,63.4
0.0702,63.6
0.0704,63.6
0.07060000000000001,63.6
0.0708,63.4
0.07100000000000001,63.6
0.0712,63.8
0.0714,63.6
0.0716,63.6
0.0718,63.4
0.07200000000000001,63.2
0.0722,63.4
0.0724,63.6
0.0726,63.6
0.0728,63.6
0.07300000000000001,63.6
0.0732,63.4
0.0734,63.6
0.0736,63.4
0.0738,63.6
0.07400000000000001,63.4
0.0742,63.4
0.07440000000000001,63.6
0.0746,63.4
0.0748,63.6
0.075,63.4
0.0752,63.6
0.07540000000000001,63.4
0.0756,63.4
0.0758,63.6
0.076,63.6
0.0762,63.6
0.07640000000000001,63.4
0.0766,63.4
0.07680000000000001,63.4
0.077,63.6
0.0772,63.4
0.07740000000000001,63.4
0.0776,63.6
0.07780000000000001,63.6
0.078,63.6
0.0782,63.4
0.0784,63.6
0.0786,63.6
0.07880000000000001,63.4
0.079,63.4
0.0792,63.4
0.0794,63.6
0.0796,63.6
0.07980000000000001,63.6
0.08,63.6
0.08020000000000001,63.4
0.0804,63.4
0.0806,63.4
0.08080000000000001,63.6
0.081,63.6
0.08120000000000001,63.4
0.0814,63.2
0.0816,63.6
0.0818,63.4
0.082,63.6
0.08220000000000001,63.2
0.0824,63.6
0.0826,63.6
0.0828,63.4
0.083,63.6
0.08320000000000001,63.4
0.0834,63.4
0.08360000000000001,63.4
0.0838,63.4
0.084,63.4
0.08420000000000001,63.6
0.0844,63.4
0.08460000000000001,63.6
0.0848,63.4
0.085,63.6
0.0852,63.6
0.0854,63.8
0.08560000000000001,63.6
0.0858,63.6
0.08600000000000001,63.6
0.0862,63.2
0.0864,63.2
0.08660000000000001,63.4
0.0868,63.2
0.08700000000000001,63.6
0.0872,63.4
0.0874,63.4
0.0876,63.4
0.0878,63.4
0.08800000000000001,63.6
0.0882,63.6
0.0884,63.6
0.0886,63.4
0.0888,63.6
0.08900000000000001,63.6
0.0892,63.6
0.08940000000000001,63.6
0.0896,63.4
0.0898,63.4
0.09000000000000001,63.4
0.0902,63.6
0.09040000000000001,63.4
0.0906,63.4
0.0908,63.6
0.091,63.6
0.0912,63.6
0.09140000000000001,63.6
0.0916,63.6
0.0918,63.4
0.092,63.4
0.0922,63.4
0.09240000000000001,63.8
0.0926,63.4
0.09280000000000001,63.4
0.093,63.4
0.0932,63.6
0.09340000000000001,63.4
0.0936,63.4
0.09380000000000001,63.4
0.094,63.4
0.0942,63.4
0.0944,63.6
0.0946,63.4
0.09480000000000001,63.4
0.095,63.6
0.0952,63.8
0.0954,63.4
0.0956,63.6
0.09580000000000001,63.4
0.096,63.6
0.09620000000000001,63.6
0.0964,63.4
0.0966,63.6
0.09680000000000001,63.4
0.097,63.6
0.09720000000000001,63.6
0.0974,63.4
0.0976,63.4
0.0978,63.4
0.098,63.4
0.09820000000000001,63.4
0.0984,63.6
0.09860000000000001,63.6
0.0988,63.4
0.099,63.6
0.09920000000000001,63.6
0.0994,63.8
0.09960000000000001,63.4
0.0998,63.6
0.1,63.4
0.10020000000000001,63.4
0.1004,63.2
0.10060000000000001,63.6
0.1008,63.6
0.101,63.6
0.1012,63.4
0.1014,63.6
0.10160000000000001,63.4
0.1018,63.6
0.10200000000000001,63.4
0.1022,63.6
0.1024,63.6
0.10260000000000001,63.4
0.1028,63.6
0.10300000000000001,63.4
0.1032,63.6
0.1034,63.4
0.10360000000000001,63.2
0.1038,63.4
0.10400000000000001,63.4
0.1042,63.2
0.1044,63.6
0.1046,63.6
0.1048,63.6
0.10500000000000001,63.4
0.1052,63.6
0.10540000000000001,63.6
0.1056,63.6
0.1058,63.4
0.10600000000000001,63.6
0.1062,63.4
0.10640000000000001,63.6
0.1066,63.2
0.1068,63.4
0.10700000000000001,63.2
0.1072,63.4
0.10740000000000001,63.4
0.1076,63.4
0.1078,63.4
0.108,63.6
0.1082,63.4
0.10840000000000001,63.2
0.1086,63.6
0.10880000000000001,63.6
0.109,63.6
0.1092,63.6
0.10940000000000001,63.4
0.1096,63.6
0.10980000000000001,63.6
0.11,63.6
0.1102,63.4
0.11040000000000001,63.4
0.1106,63.6
0.11080000000000001,63.6
0.111,63.4
0.11120000000000001,63.6
0.1114,63.6
0.1116,63.4
0.11180000000000001,63.2
0.112,63.4
0.11220000000000001,63.6
0.1124,63.4
0.1126,63.4
0.11280000000000001,63.2
0.113,63.6
0.11320000000000001,63.4
0.1134,63.6
0.1136,63.2
0.11380000000000001,63.4
0.114,63.4
0.11420000000000001,63.4
0.1144,63.4
0.11460000000000001,63.2
0.1148,63.6
0.115,63.6
0.11520000000000001,63.4
0.1154,63.8
0.11560000000000001,63.6
0.1158,63.4
0.116,63.4
0.11620000000000001,63.6
0.1164,63.4
0.11660000000000001,63.4
0.1168,63.6
0.117,63.4
0.11720000000000001,63.6
0.1174,63.6
0.11760000000000001,63.6
0.1178,63.4
0.11800000000000001,63.6
0.1182,63.4
0.1184,63.6
0.11860000000000001,63.6
0.1188,63.6
0.11900000000000001,63.6
0.1192,63.6
0.1194,63.6
0.11960000000000001,63.4
0.1198,63.6
0.12000000000000001,63.4
0.1202,63.4
0.12040000000000001,63.6
0.1206,63.4
0.1208,63.4
0.12100000000000001,63.4
0.1212,63.6
0.12140000000000001,63.4
0.1216,63.8
0.1218,63.4
0.12200000000000001,63.4
0.1222,63.6
0.12240000000000001,63.4
0.1226,63.6
0.1228,63.4
0.12300000000000001,63.6
0.1232,63.4
0.12340000000000001,63.4
0.1236,63.4
0.12380000000000001,63.6
0.124,63.4
0.1242,63.6
0.12440000000000001,63.4
0.1246,63.4
0.12480000000000001,63.6
0.125,63.4
0.1252,63.4
0.1254,63.6
0.12560000000000002,63.4
0.1258,63.4
0.126,63.4
0.1262,63.6
0.1264,63.4
0.12660000000000002,63.4
0.1268,63.4
0.127,63.4
0.1272,63.6
0.1274,63.4
0.12760000000000002,63.4
0.1278,63.6
0.128,63.6
0.1282,63.2
0.12840000000000001,63.4
0.12860000000000002,63.4
0.1288,63.6
0.129,63.8
0.1292,63.4
0.12940000000000002,63.4
0.1296,63.6
0.1298,63.6
0.13,63.6
0.1302,63.4
0.13040000000000002,63.6
0.1306,63.4
0.1308,63.6
0.131,63.6
0.1312,63.4
0.13140000000000002,63.2
0.1316,63.4
0.1318,63.6
0.132,63.6
0.1322,63.4
0.13240000000000002,63.2
0.1326,63.4
0.1328,63.4
0.133,63.4
0.1332,63.6
0.13340000000000002,63.4
0.1336,63.6
0.1338,63.2
0.134,63.4
0.1342,63.4
0.13440000000000002,63.4
0.1346,63.6
0.1348,63.6
0.135,63.6
0.13520000000000001,63.6
0.13540000000000002,63.4
0.1356,63.6
0.1358,63.4
0.136,63.8
0.13620000000000002,63.4
0.1364,63.6
0.1366,63.6
0.1368,63.6
0.137,63.4
0.13720000000000002,63.4
0.1374,63.6
0.1376,63.4
0.1378,63.4
0.138,63.6
0.13820000000000002,63.8
0.1384,63.4
0.1386,63.4
0.1388,63.4
0.139,63.6
0.13920000000000002,63.4
0.1394,63.6
0.1396,63.4
0.1398,63.4
0.14,63.4
0.14020000000000002,63.6
0.1404,63.6
0.1406,63.6
0.1408,63.4
0.14100000000000001,63.6
0.14120000000000002,63.6
0.1414,63.4
0.1416,63.4
0.1418,63.4
0.14200000000000002,63.6
0.1422,63.2
0.1424,63.4
0.1426,63.2
0.1428,63.4
0.14300000000000002,63.4
0.1432,63.6
0.1434,63.4
0.1436,63.4
0.1438,63.4
0.14400000000000002,63.6
0.1442,63.6
0.1444,63.4
0.1446,63.4
0.1448,63.6
0.14500000000000002,63.4
0.1452,63.6
0.1454,63.4
0.1456,63.4
0.1458,63.4
0.14600000000000002,63.6
0.1462,63.2
0.1464,63.4
0.1466,63.4
0.1468,63.4
0.14700000000000002,63.6
0.1472,63.4
0.1474,63.6
0.1476,63.6
0.14780000000000001,63.4
0.14800000000000002,63.2
0.1482,63.6
0.1484,63.4
0.1486,63.6
0.14880000000000002,63.4
0.149,63.6
0.1492,63.6
0.1494,63.6
0.1496,63.6
0.14980000000000002,63.4
0.15,63.4
0.1502,63.4
0.1504,63.6
0.1506,63.6
0.15080000000000002,63.6
0.151,63.6
0.1512,63.2
0.1514,63.4
0.1516,63.8
0.15180000000000002,63.6
0.152,63.4
0.1522,63.6
0.1524,63.2
0.1526,63.6
0.15280000000000002,63.4
0.153,63.6
0.1532,63.4
0.1534,63.4
0.15360000000000001,63.4
0.15380000000000002,63.4
0.154,63.6
0.1542,63.4
0.1544,63.8
0.15460000000000002,63.4
0.15480000000000002,63.4
0.155,63.6
0.1552,63.4
0.1554,63.4
0.15560000000000002,63.4
0.1558,63.4
0.156,63.4
0.1562,63.6
0.1564,63.6
0.15660000000000002,63.6
0.1568,63.4
0.157,63.6
0.1572,63.4
0.1574,63.4
0.15760000000000002,63.4
0.1578,63.4
0.158,63.6
0.1582,63.4
0.1584,63.2
0.15860000000000002,63.8
0.1588,63.6
0.159,63.4
0.1592,63.4
0.15940000000000001,63.4
0.15960000000000002,63.2
0.1598,63.4
0.16,63.6
0.1602,63.6
0.16040000000000001,63.6
0.16060000000000002,63.2
0.1608,63.4
0.161,63.4
0.1612,63.6
0.16140000000000002,63.6
0.16160000000000002,63.4
0.1618,63.6
0.162,63.2
0.1622,63.6
0.16240000000000002,63.2
0.1626,63.4
0.1628,63.6
0.163,63.2
0.1632,63.6
0.16340000000000002,63.6
0.1636,63.4
0.1638,63.6
0.164,63.4
0.1642,63.4
0.16440000000000002,63.6
0.1646,63.6
0.1648,63.8
0.165,63.6
0.1652,63.4
0.16540000000000002,63.4
0.1656,63.4
0.1658,63.6
0.166,63.4
0.16620000000000001,63.6
0.16640000000000002,63.4
0.1666,63.4
0.1668,63.6
0.167,63.4
0.16720000000000002,63.4
0.16740000000000002,63.6
0.1676,63.6
0.1678,63.2
0.168,63.6
0.16820000000000002,63.6
0.16840000000000002,63.6
0.1686,63.6
0.1688,63.6
0.169,63.6
0.16920000000000002,63.6
0.1694,63.6
0.1696,63.4
0.1698,63.4
0.17,63.4
0.17020000000000002,63.6
0.1704,63.4
0.1706,63.6
0.1708,63.6
0.171,63.2
0.17120000000000002,63.2
0.1714,63.4
0.1716,63.6
0.1718,63.6
0.17200000000000001,63.4
0.17220000000000002,63.4
0.1724,63.6
0.1726,63.4
0.1728,63.6
0.17300000000000001,63.2
0.17320000000000002,63.4
0.1734,63.4
0.1736,63.6
0.1738,63.6
0.17400000000000002,63.4
0.17420000000000002,63.4
0.1744,63.4
0.1746,63.4
0.1748,63.4
0.17500000000000002,63.6
0.1752,63.6
0.1754,63.4
0.1756,63.6
0.1758,63.6
0.17600000000000002,63.6
0.1762,63.6
0.1764,63.6
0.1766,63.6
0.1768,63.6
0.17700000000000002,63.6
0.1772,63.6
0.1774,63.6
0.1776,63.6
0.1778,63.4
0.17800000000000002,63.4
0.1782,63.6
0.1784,63.6
0.1786,63.6
0.17880000000000001,63.6
0.17900000000000002,63.6
0.1792,63.4
0.1794,63.2
0.1796,63.4
0.17980000000000002,63.6
0.18000000000000002,63.6
0.1802,63.6
0.1804,63.6
0.1806,63.4
0.18080000000000002,63.2
0.18100000000000002,63.4
0.1812,63.6
0.1814,63.6
0.1816,63.6
0.18180000000000002,63.6
0.182,63.6
0.1822,63.4
0.1824,63.4
0.1826,63.4
0.18280000000000002,63.6
0.183,63.4
0.1832,63.6
0.1834,63.4
0.1836,63.6
0.18380000000000002,63.6
0.184,63.4
0.1842,63.6
0.1844,63.6
0.18460000000000001,63.6
0.18480000000000002,63.6
0.185,63.6
0.1852,63.4
0.1854,63.4
0.18560000000000001,63.4
0.18580000000000002,63.4
0.186,63.6
0.1862,63.4
0.1864,63.4
0.18660000000000002,63.6
0.18680000000000002,63.4
0.187,63.4
0.1872,63.4
0.1874,63.6
0.18760000000000002,63.2
0.18780000000000002,63.4
0.188,63.8
0.1882,63.4
0.1884,63.4
0.18860000000000002,63.4
0.1888,63.6
0.189,63.4
0.1892,63.6
0.1894,63.2
0.18960000000000002,63.4
0.1898,63.6
0.19,63.6
0.1902,63.6
0.1904,63.6
0.19060000000000002,63.6
0.1908,63.4
0.191,63.4
0.1912,63.4
0.19140000000000001,63.6
0.19160000000000002,63.4
0.1918,63.4
0.192,63.2
0.1922,63.4
0.19240000000000002,63.4
0.19260000000000002,63.6
0.1928,63.4
0.193,63.6
0.1932,63.2
0.19340000000000002,63.4
0.19360000000000002,63.4
0.1938,63.4
0.194,63.4
0.1942,63.6
0.19440000000000002,63.4
0.19460000000000002,63.4
0.1948,63.8
0.195,63.8
0.1952,63.6
0.19540000000000002,63.6
0.1956,63.6
0.1958,63.4
0.196,63.6
0.1962,63.4
0.19640000000000002,63.4
0.1966,63.6
0.1968,63.4
0.197,63.4
0.19720000000000001,63.6
0.19740000000000002,63.6
0.1976,63.6
0.1978,63.4
0.198,63.4
0.19820000000000002,63.4
0.19840000000000002,63.4
0.1986,63.4
0.1988,63.6
0.199,63.6
0.19920000000000002,63.4
0.19940000000000002,63.4
0.1996,63.6
0.1998,63.4
0.2,63.6
0.20020000000000002,63.4
0.20040000000000002,63.8
0.2006,63.4
0.2008,63.6
0.201,63.6
0.20120000000000002,63.6
0.20140000000000002,63.6
0.2016,63.4
0.2018,63.6
0.202,63.4
0.20220000000000002,63.4
0.2024,63.4
0.2026,63.2
0.2028,63.4
0.203,63.6
0.20320000000000002,63.4
0.2034,63.4
0.2036,63.6
0.2038,63.6
0.20400000000000001,63.4
0.20420000000000002,63.6
0.2044,63.4
0.2046,63.6
0.2048,63.6
0.20500000000000002,63.4
0.20520000000000002,63.4
0.2054,63.6
0.2056,63.4
0.2058,63.6
0.20600000000000002,63.2
0.20620000000000002,63.4
0.2064,63.6
0.2066,63.4
0.2068,63.4
0.20700000000000002,63.4
0.20720000000000002,63.6
0.2074,63.4
0.2076,63.4
0.2078,63.6
0.20800000000000002,63.6
0.2082,63.4
0.2084,63.4
0.2086,63.6
0.2088,63.4
0.20900000000000002,63.6
0.2092,63.6
0.2094,63.4
0.2096,63.6
0.20980000000000001,63.6
0.21000000000000002,63.6
0.2102,63.6
0.2104,63.6
0.2106,63.4
0.21080000000000002,63.2
0.21100000000000002,63.6
0.2112,63.8
0.2114,63.6
0.2116,63.4
0.21180000000000002,63.4
0.21200000000000002,63.6
0.2122,63.4
